* Measurement data measured by REW V5.19
* Source: Frequency Response Averaged data
* Format: Averaged data produced from Dec 2 12:33:12, Dec 2 12:34:41
* Dated: 02-Dec-2021 12:35:36
* REW Settings:
*  C-weighting compensation: Off
*  Target level: 75.0 dB
* Note: Averaged data produced from Dec 2 12:33:12, Dec 2 12:34:41
* Measurement: New L new tip
* Smoothing: 1/24 octave
* Frequency Step: 1/48 octave
* Start Frequency: 20.000 Hz
*
* Freq(Hz)	SPL(dB)
20.000000	80.071
20.299999	80.068
20.600000	80.064
20.900000	80.059
21.200001	80.053
21.400000	80.049
21.799999	80.041
22.000000	80.038
22.400000	80.031
22.700001	80.026
23.000000	80.022
23.299999	80.017
23.600000	80.012
24.000000	80.005
24.299999	79.999
24.700001	79.990
25.000000	79.983
25.400000	79.973
25.799999	79.963
26.200001	79.953
26.500000	79.945
26.900000	79.934
27.200001	79.926
27.600000	79.915
28.000000	79.903
28.500000	79.888
29.000000	79.873
29.500000	79.860
30.000000	79.847
30.400000	79.838
30.700001	79.832
31.100000	79.823
31.500000	79.813
32.000000	79.800
32.500000	79.785
33.000000	79.769
33.500000	79.753
34.000000	79.737
34.500000	79.722
35.000000	79.709
35.500000	79.698
36.000000	79.687
36.500000	79.676
37.000000	79.664
37.500000	79.649
38.200001	79.622
38.700001	79.599
39.500000	79.558
40.000000	79.533
40.599998	79.504
41.200001	79.479
41.799999	79.457
42.500000	79.433
43.099998	79.414
43.700001	79.393
44.400002	79.369
45.000000	79.346
45.500000	79.327
46.200001	79.300
46.799999	79.275
47.500000	79.245
48.200001	79.214
48.700001	79.191
49.400002	79.158
50.000000	79.131
50.799999	79.097
51.500000	79.069
52.200001	79.042
53.000000	79.011
53.799999	78.979
54.500000	78.951
55.200001	78.923
56.000000	78.890
57.000000	78.847
58.000000	78.801
59.000000	78.755
60.000000	78.710
60.799999	78.674
61.500000	78.645
62.200001	78.616
63.000000	78.584
64.000000	78.545
65.000000	78.506
66.000000	78.466
67.000000	78.425
68.000000	78.382
69.000000	78.338
70.000000	78.294
71.000000	78.250
72.000000	78.207
73.000000	78.167
74.000000	78.128
75.000000	78.089
76.199997	78.042
77.500000	77.989
78.800003	77.934
80.000000	77.883
81.199997	77.832
82.500000	77.780
83.800003	77.729
85.000000	77.683
86.199997	77.637
87.500000	77.585
88.500000	77.544
90.000000	77.481
91.199997	77.432
92.500000	77.381
93.800003	77.332
95.000000	77.288
96.199997	77.245
97.500000	77.196
98.800003	77.147
100.000000	77.100
101.500000	77.043
103.000000	76.987
104.400002	76.938
106.000000	76.882
107.500000	76.830
109.000000	76.778
110.599998	76.722
112.000000	76.674
113.800003	76.613
115.000000	76.573
117.199997	76.500
118.000000	76.473
120.599998	76.388
122.000000	76.343
124.099998	76.279
125.000000	76.251
126.500000	76.206
128.000000	76.160
131.500000	76.052
132.000000	76.037
134.000000	75.977
136.000000	75.918
138.000000	75.860
140.000000	75.801
143.000000	75.715
145.000000	75.660
147.500000	75.593
150.000000	75.529
152.500000	75.467
155.000000	75.408
157.500000	75.352
160.000000	75.296
162.500000	75.240
165.000000	75.182
167.500000	75.120
170.000000	75.051
172.500000	74.976
175.000000	74.895
177.500000	74.812
180.000000	74.732
182.500000	74.660
185.000000	74.599
187.500000	74.548
190.000000	74.504
192.500000	74.465
195.000000	74.426
197.500000	74.386
200.000000	74.343
203.000000	74.288
206.000000	74.230
209.000000	74.171
212.000000	74.112
214.000000	74.072
218.000000	73.997
220.000000	73.962
224.000000	73.898
227.000000	73.857
230.000000	73.822
233.000000	73.790
236.000000	73.763
240.000000	73.731
243.000000	73.711
247.000000	73.689
250.000000	73.674
254.000000	73.653
258.000000	73.627
262.000000	73.594
265.000000	73.566
269.000000	73.524
272.000000	73.491
276.000000	73.447
280.000000	73.403
285.000000	73.349
290.000000	73.297
295.000000	73.247
300.000000	73.201
304.000000	73.165
307.000000	73.139
311.000000	73.104
315.000000	73.069
320.000000	73.026
325.000000	72.983
330.000000	72.942
335.000000	72.901
340.000000	72.862
345.000000	72.823
350.000000	72.786
355.000000	72.750
360.000000	72.715
365.000000	72.680
370.000000	72.646
375.000000	72.612
382.000000	72.565
387.000000	72.532
395.000000	72.480
400.000000	72.448
406.000000	72.410
412.000000	72.375
418.000000	72.343
425.000000	72.312
431.000000	72.291
437.000000	72.274
444.000000	72.258
450.000000	72.246
455.000000	72.238
462.000000	72.229
468.000000	72.224
475.000000	72.218
482.000000	72.211
487.000000	72.203
494.000000	72.189
500.000000	72.174
508.000000	72.153
515.000000	72.133
522.000000	72.113
530.000000	72.091
538.000000	72.070
545.000000	72.052
552.000000	72.035
560.000000	72.017
570.000000	71.998
580.000000	71.983
590.000000	71.969
600.000000	71.955
608.000000	71.944
615.000000	71.936
622.000000	71.928
630.000000	71.920
640.000000	71.912
650.000000	71.905
660.000000	71.901
670.000000	71.900
680.000000	71.901
690.000000	71.904
700.000000	71.909
710.000000	71.914
720.000000	71.922
730.000000	71.933
740.000000	71.947
750.000000	71.963
762.000000	71.987
775.000000	72.017
788.000000	72.051
800.000000	72.087
812.000000	72.127
825.000000	72.176
838.000000	72.229
850.000000	72.284
862.000000	72.342
875.000000	72.410
885.000000	72.465
900.000000	72.553
912.000000	72.628
925.000000	72.713
938.000000	72.802
950.000000	72.887
962.000000	72.975
975.000000	73.073
988.000000	73.173
1000.000000	73.266
1015.000000	73.382
1030.000000	73.498
1044.000000	73.605
1060.000000	73.727
1075.000000	73.840
1090.000000	73.951
1106.000000	74.068
1120.000000	74.167
1138.000000	74.288
1150.000000	74.365
1172.000000	74.498
1180.000000	74.544
1206.000000	74.688
1220.000000	74.762
1241.000000	74.869
1250.000000	74.914
1265.000000	74.985
1280.000000	75.054
1315.000000	75.207
1320.000000	75.228
1340.000000	75.313
1360.000000	75.398
1380.000000	75.484
1400.000000	75.571
1430.000000	75.709
1450.000000	75.809
1475.000000	75.945
1500.000000	76.095
1525.000000	76.255
1550.000000	76.416
1575.000000	76.560
1600.000000	76.665
1625.000000	76.721
1650.000000	76.729
1675.000000	76.706
1700.000000	76.680
1725.000000	76.676
1750.000000	76.709
1775.000000	76.781
1800.000000	76.885
1825.000000	77.012
1850.000000	77.151
1875.000000	77.296
1900.000000	77.444
1925.000000	77.591
1950.000000	77.735
1975.000000	77.876
2000.000000	78.012
2030.000000	78.169
2060.000000	78.320
2090.000000	78.463
2120.000000	78.601
2140.000000	78.690
2180.000000	78.863
2200.000000	78.946
2240.000000	79.108
2270.000000	79.224
2300.000000	79.335
2330.000000	79.441
2360.000000	79.540
2400.000000	79.661
2430.000000	79.741
2470.000000	79.830
2500.000000	79.881
2540.000000	79.922
2580.000000	79.928
2620.000000	79.898
2650.000000	79.852
2690.000000	79.762
2720.000000	79.676
2760.000000	79.542
2800.000000	79.393
2850.000000	79.200
2900.000000	79.009
2950.000000	78.831
3000.000000	78.672
3040.000000	78.564
3070.000000	78.495
3110.000000	78.421
3150.000000	78.368
3200.000000	78.333
3250.000000	78.329
3300.000000	78.354
3350.000000	78.402
3400.000000	78.466
3450.000000	78.540
3500.000000	78.621
3550.000000	78.703
3600.000000	78.786
3650.000000	78.868
3700.000000	78.946
3750.000000	79.019
3820.000000	79.111
3870.000000	79.167
3950.000000	79.235
4000.000000	79.267
4060.000000	79.299
4120.000000	79.329
4180.000000	79.366
4250.000000	79.421
4310.000000	79.477
4370.000000	79.534
4440.000000	79.586
4500.000000	79.604
4550.000000	79.590
4620.000000	79.520
4680.000000	79.408
4750.000000	79.219
4820.000000	78.976
4870.000000	78.777
4940.000000	78.474
5000.000000	78.201
5080.000000	77.835
5150.000000	77.523
5220.000000	77.225
5300.000000	76.908
5380.000000	76.621
5450.000000	76.395
5520.000000	76.193
5600.000000	75.991
5700.000000	75.776
5800.000000	75.596
5900.000000	75.438
6000.000000	75.289
6080.000000	75.169
6150.000000	75.059
6220.000000	74.946
6300.000000	74.812
6400.000000	74.644
6500.000000	74.483
6600.000000	74.339
6700.000000	74.224
6800.000000	74.149
6900.000000	74.123
7000.000000	74.151
7100.000000	74.239
7200.000000	74.387
7300.000000	74.592
7400.000000	74.847
7500.000000	75.141
7620.000000	75.522
7750.000000	75.932
7880.000000	76.291
8000.000000	76.543
8120.000000	76.694
8250.000000	76.731
8380.000000	76.637
8500.000000	76.446
8620.000000	76.179
8750.000000	75.839
8850.000000	75.567
9000.000000	75.193
9120.000000	74.960
9250.000000	74.812
9380.000000	74.798
9500.000000	74.914
9620.000000	75.146
9750.000000	75.499
9880.000000	75.905
10000.000000	76.268
10150.000000	76.626
10300.000000	76.806
10440.000000	76.774
10600.000000	76.502
10750.000000	76.056
10900.000000	75.492
11060.000000	74.843
11200.000000	74.294
11380.000000	73.653
11500.000000	73.271
11720.000000	72.637
11800.000000	72.421
12060.000000	71.755
12200.000000	71.416
12410.000000	70.940
12500.000000	70.753
12650.000000	70.471
12800.000000	70.240
13150.000000	69.934
13200.000000	69.916
13400.000000	69.876
13600.000000	69.841
13800.000000	69.738
14000.000000	69.511
14300.000000	68.874
14500.000000	68.251
14750.000000	67.294
15000.000000	66.229
15250.000000	65.167
15500.000000	64.213
15750.000000	63.446
16000.000000	62.903
16250.000000	62.559
16500.000000	62.311
16750.000000	61.999
17000.000000	61.459
17250.000000	60.574
17500.000000	59.314
17750.000000	57.785
18000.000000	56.286
18250.000000	55.232
18500.000000	54.771
18750.000000	54.627
19000.000000	54.456
19250.000000	54.092
19500.000000	53.541
19750.000000	52.954
