* Measurement data measured by REW V5.19
* Source: Auriculares con micrófono (USB-C to 3.5mm Headphone Jack Adapter), MICROPHONE (Volumen general), L, volume: 0,200
* Format: 256k Log Swept Sine, 1 sweep at -12,0 dBFS  With no timing reference
* Dated: 17-nov-2021 12:39:15
* REW Settings:
*  C-weighting compensation: Off
*  Target level: 75.0 dB
* Note: 
* Measurement: Moondrop Aria L3
* Smoothing: 1/12 octave
* Frequency Step: 1/48 octave
* Start Frequency: 20.300 Hz
*
* Freq(Hz)	SPL(dB)	Phase(degrees)
20.299999	91.518	-102.4970
20.600000	91.551	-102.9169
20.900000	91.628	-103.8042
21.200001	91.706	-104.7773
21.400000	91.754	-105.4314
21.799999	91.840	-106.7381
22.000000	91.877	-107.3887
22.400000	91.944	-108.6937
22.700001	91.987	-109.6757
23.000000	92.026	-110.6578
23.299999	92.062	-111.6382
23.600000	92.096	-112.6158
24.000000	92.138	-113.9122
24.299999	92.167	-114.8757
24.700001	92.204	-116.1414
25.000000	92.230	-117.0709
25.400000	92.263	-118.2780
25.799999	92.296	-119.4471
26.200001	92.327	-120.5819
26.500000	92.350	-121.4138
26.900000	92.379	-122.4999
27.200001	92.399	-123.2970
27.600000	92.422	-124.3346
28.000000	92.442	-125.3412
28.500000	92.463	-126.5581
29.000000	92.481	-127.7402
29.500000	92.496	-128.9005
30.000000	92.508	-130.0469
30.400000	92.514	-130.9542
30.700001	92.518	-131.6278
31.100000	92.521	-132.5158
31.500000	92.524	-133.3918
32.000000	92.526	-134.4699
32.500000	92.528	-135.5286
33.000000	92.529	-136.5665
33.500000	92.530	-137.5819
34.000000	92.531	-138.5744
34.500000	92.532	-139.5444
35.000000	92.533	-140.4925
35.500000	92.532	-141.4192
36.000000	92.530	-142.3249
36.500000	92.526	-143.2102
37.000000	92.520	-144.0761
37.500000	92.513	-144.9240
38.200001	92.500	-146.0839
38.700001	92.488	-146.8944
39.500000	92.468	-148.1609
40.000000	92.454	-148.9341
40.599998	92.437	-149.8444
41.200001	92.420	-150.7356
41.799999	92.403	-151.6063
42.500000	92.382	-152.5958
43.099998	92.364	-153.4235
43.700001	92.346	-154.2327
44.400002	92.322	-155.1513
45.000000	92.301	-155.9176
45.500000	92.284	-156.5448
46.200001	92.257	-157.4093
46.799999	92.233	-158.1380
47.500000	92.204	-158.9755
48.200001	92.173	-159.8012
48.700001	92.149	-160.3784
49.400002	92.114	-161.1539
50.000000	92.086	-161.7848
50.799999	92.054	-162.5990
51.500000	92.028	-163.3084
52.200001	92.002	-164.0146
53.000000	91.971	-164.8021
53.799999	91.938	-165.5629
54.500000	91.908	-166.2100
55.200001	91.877	-166.8414
56.000000	91.841	-167.5446
57.000000	91.793	-168.3981
58.000000	91.745	-169.2259
59.000000	91.696	-170.0313
60.000000	91.647	-170.8164
60.799999	91.607	-171.4274
61.500000	91.572	-171.9484
62.200001	91.538	-172.4577
63.000000	91.498	-173.0260
64.000000	91.448	-173.7159
65.000000	91.397	-174.3835
66.000000	91.347	-175.0300
67.000000	91.295	-175.6556
68.000000	91.244	-176.2622
69.000000	91.193	-176.8521
70.000000	91.142	-177.4258
71.000000	91.090	-177.9835
72.000000	91.039	-178.5264
73.000000	90.987	-179.0548
74.000000	90.935	-179.5675
75.000000	90.883	179.9359
76.199997	90.821	179.3598
77.500000	90.754	178.7592
78.800003	90.686	178.1814
80.000000	90.624	177.6669
81.199997	90.563	177.1697
82.500000	90.496	176.6500
83.800003	90.430	176.1491
85.000000	90.369	175.7039
86.199997	90.309	175.2761
87.500000	90.244	174.8325
88.500000	90.194	174.5033
90.000000	90.120	174.0260
91.199997	90.062	173.6569
92.500000	89.999	173.2697
93.800003	89.937	172.8961
95.000000	89.880	172.5637
96.199997	89.825	172.2424
97.500000	89.766	171.9050
98.800003	89.708	171.5786
100.000000	89.654	171.2899
101.500000	89.588	170.9481
103.000000	89.523	170.6228
104.400002	89.463	170.3292
106.000000	89.396	170.0049
107.500000	89.333	169.7141
109.000000	89.272	169.4369
110.599998	89.207	169.1561
112.000000	89.151	168.9222
113.800003	89.080	168.6353
115.000000	89.033	168.4514
117.199997	88.948	168.1306
118.000000	88.918	168.0198
120.599998	88.820	167.6838
122.000000	88.768	167.5164
124.099998	88.692	167.2788
125.000000	88.660	167.1813
126.500000	88.606	167.0246
128.000000	88.553	166.8756
131.500000	88.432	166.5580
132.000000	88.415	166.5163
134.000000	88.347	166.3589
136.000000	88.281	166.2141
138.000000	88.216	166.0789
140.000000	88.151	165.9532
143.000000	88.056	165.7836
145.000000	87.994	165.6829
147.500000	87.917	165.5695
150.000000	87.842	165.4710
152.500000	87.768	165.3901
155.000000	87.696	165.3234
157.500000	87.625	165.2656
160.000000	87.554	165.2168
162.500000	87.485	165.1769
165.000000	87.416	165.1459
167.500000	87.349	165.1261
170.000000	87.284	165.1182
172.500000	87.221	165.1205
175.000000	87.158	165.1304
177.500000	87.097	165.1473
180.000000	87.036	165.1717
182.500000	86.977	165.2031
185.000000	86.919	165.2405
187.500000	86.862	165.2842
190.000000	86.806	165.3362
192.500000	86.750	165.3965
195.000000	86.696	165.4628
197.500000	86.643	165.5339
200.000000	86.591	165.6089
203.000000	86.530	165.7039
206.000000	86.469	165.8049
209.000000	86.410	165.9102
212.000000	86.353	166.0183
214.000000	86.315	166.0930
218.000000	86.242	166.2516
220.000000	86.206	166.3355
224.000000	86.135	166.5105
227.000000	86.084	166.6467
230.000000	86.033	166.7869
233.000000	85.984	166.9312
236.000000	85.936	167.0795
240.000000	85.874	167.2853
243.000000	85.830	167.4460
247.000000	85.771	167.6644
250.000000	85.728	167.8261
254.000000	85.671	168.0358
258.000000	85.615	168.2465
262.000000	85.561	168.4651
265.000000	85.522	168.6344
269.000000	85.472	168.8657
272.000000	85.436	169.0422
276.000000	85.388	169.2801
280.000000	85.342	169.5191
285.000000	85.286	169.8199
290.000000	85.231	170.1234
295.000000	85.177	170.4295
300.000000	85.126	170.7358
304.000000	85.086	170.9810
307.000000	85.057	171.1663
311.000000	85.019	171.4158
315.000000	84.982	171.6677
320.000000	84.937	171.9859
325.000000	84.894	172.3076
330.000000	84.852	172.6301
335.000000	84.811	172.9496
340.000000	84.771	173.2663
345.000000	84.732	173.5839
350.000000	84.695	173.9047
355.000000	84.659	174.2280
360.000000	84.626	174.5529
365.000000	84.593	174.8796
370.000000	84.561	175.2064
375.000000	84.530	175.5305
382.000000	84.487	175.9814
387.000000	84.458	176.3043
395.000000	84.412	176.8226
400.000000	84.385	177.1464
406.000000	84.354	177.5336
412.000000	84.324	177.9194
418.000000	84.295	178.3055
425.000000	84.262	178.7576
431.000000	84.236	179.1465
437.000000	84.211	179.5348
444.000000	84.183	179.9848
450.000000	84.159	-179.6318
455.000000	84.140	-179.3130
462.000000	84.114	-178.8665
468.000000	84.093	-178.4829
475.000000	84.069	-178.0342
482.000000	84.047	-177.5856
487.000000	84.032	-177.2654
494.000000	84.012	-176.8183
500.000000	83.995	-176.4368
508.000000	83.974	-175.9297
515.000000	83.956	-175.4846
522.000000	83.940	-175.0375
530.000000	83.923	-174.5261
538.000000	83.907	-174.0163
545.000000	83.894	-173.5708
552.000000	83.881	-173.1238
560.000000	83.868	-172.6124
570.000000	83.852	-171.9751
580.000000	83.839	-171.3373
590.000000	83.828	-170.6947
600.000000	83.818	-170.0480
608.000000	83.811	-169.5315
615.000000	83.806	-169.0813
622.000000	83.802	-168.6317
630.000000	83.798	-168.1178
640.000000	83.794	-167.4746
650.000000	83.793	-166.8281
660.000000	83.794	-166.1772
670.000000	83.796	-165.5221
680.000000	83.800	-164.8640
690.000000	83.806	-164.2052
700.000000	83.814	-163.5466
710.000000	83.824	-162.8865
720.000000	83.836	-162.2236
730.000000	83.850	-161.5573
740.000000	83.865	-160.8888
750.000000	83.884	-160.2199
762.000000	83.909	-159.4173
775.000000	83.940	-158.5450
788.000000	83.976	-157.6702
800.000000	84.014	-156.8666
812.000000	84.055	-156.0716
825.000000	84.104	-155.2176
838.000000	84.159	-154.3674
850.000000	84.213	-153.5883
862.000000	84.272	-152.8175
875.000000	84.341	-151.9947
885.000000	84.397	-151.3739
900.000000	84.487	-150.4676
912.000000	84.564	-149.7650
925.000000	84.653	-149.0273
938.000000	84.746	-148.3184
950.000000	84.836	-147.6939
962.000000	84.930	-147.1032
975.000000	85.035	-146.5092
988.000000	85.143	-145.9720
1000.000000	85.243	-145.5363
1015.000000	85.365	-145.0817
1030.000000	85.476	-144.7103
1044.000000	85.562	-144.3730
1060.000000	85.647	-143.8799
1075.000000	85.735	-143.2774
1090.000000	85.846	-142.6368
1106.000000	85.985	-142.0396
1120.000000	86.113	-141.6259
1138.000000	86.275	-141.2195
1150.000000	86.379	-141.0054
1172.000000	86.563	-140.6979
1180.000000	86.627	-140.6087
1206.000000	86.827	-140.3857
1220.000000	86.929	-140.3001
1241.000000	87.075	-140.2030
1250.000000	87.134	-140.1695
1265.000000	87.231	-140.1216
1280.000000	87.324	-140.0810
1315.000000	87.528	-140.0070
1320.000000	87.556	-139.9982
1340.000000	87.664	-139.9657
1360.000000	87.769	-139.9360
1380.000000	87.870	-139.9078
1400.000000	87.968	-139.8813
1430.000000	88.111	-139.8440
1450.000000	88.203	-139.8188
1475.000000	88.316	-139.7847
1500.000000	88.427	-139.7471
1525.000000	88.536	-139.7079
1550.000000	88.644	-139.6711
1575.000000	88.751	-139.6381
1600.000000	88.857	-139.6090
1625.000000	88.963	-139.5849
1650.000000	89.068	-139.5674
1675.000000	89.173	-139.5583
1700.000000	89.278	-139.5580
1725.000000	89.382	-139.5673
1750.000000	89.487	-139.5880
1775.000000	89.591	-139.6213
1800.000000	89.695	-139.6678
1825.000000	89.799	-139.7284
1850.000000	89.902	-139.8039
1875.000000	90.006	-139.8946
1900.000000	90.108	-140.0003
1925.000000	90.210	-140.1224
1950.000000	90.312	-140.2626
1975.000000	90.413	-140.4215
2000.000000	90.513	-140.5991
2030.000000	90.631	-140.8366
2060.000000	90.748	-141.1004
2090.000000	90.863	-141.3897
2120.000000	90.976	-141.7047
2140.000000	91.050	-141.9290
2180.000000	91.195	-142.4123
2200.000000	91.266	-142.6713
2240.000000	91.404	-143.2232
2270.000000	91.503	-143.6659
2300.000000	91.599	-144.1326
2330.000000	91.692	-144.6225
2360.000000	91.780	-145.1342
2400.000000	91.892	-145.8478
2430.000000	91.971	-146.4045
2470.000000	92.070	-147.1729
2500.000000	92.138	-147.7669
2540.000000	92.223	-148.5802
2580.000000	92.299	-149.4140
2620.000000	92.366	-150.2640
2650.000000	92.411	-150.9093
2690.000000	92.463	-151.7763
2720.000000	92.496	-152.4290
2760.000000	92.533	-153.2995
2800.000000	92.562	-154.1667
2850.000000	92.587	-155.2409
2900.000000	92.600	-156.2978
2950.000000	92.602	-157.3298
3000.000000	92.594	-158.3308
3040.000000	92.580	-159.1064
3070.000000	92.566	-159.6721
3110.000000	92.543	-160.4038
3150.000000	92.515	-161.1083
3200.000000	92.475	-161.9497
3250.000000	92.430	-162.7475
3300.000000	92.380	-163.5034
3350.000000	92.327	-164.2190
3400.000000	92.271	-164.8956
3450.000000	92.213	-165.5352
3500.000000	92.154	-166.1412
3550.000000	92.095	-166.7179
3600.000000	92.036	-167.2693
3650.000000	91.977	-167.8012
3700.000000	91.918	-168.3188
3750.000000	91.860	-168.8268
3820.000000	91.779	-169.5296
3870.000000	91.721	-170.0313
3950.000000	91.629	-170.8444
4000.000000	91.571	-171.3647
4060.000000	91.498	-172.0063
4120.000000	91.423	-172.6699
4180.000000	91.342	-173.3564
4250.000000	91.242	-174.1850
4310.000000	91.147	-174.9159
4370.000000	91.045	-175.6615
4440.000000	90.912	-176.5414
4500.000000	90.788	-177.2947
4550.000000	90.676	-177.9149
4620.000000	90.505	-178.7597
4680.000000	90.346	-179.4509
4750.000000	90.147	179.7970
4820.000000	89.932	179.1190
4870.000000	89.771	178.6879
4940.000000	89.535	178.1678
5000.000000	89.325	177.8068
5080.000000	89.036	177.4569
5150.000000	88.776	177.2794
5220.000000	88.512	177.2237
5300.000000	88.209	177.3090
5380.000000	87.907	177.5505
5450.000000	87.646	177.8867
5520.000000	87.389	178.3361
5600.000000	87.102	178.9863
5700.000000	86.757	-179.9940
5800.000000	86.437	-178.7515
5900.000000	86.153	-177.3533
6000.000000	85.904	-175.9209
6080.000000	85.722	-174.7805
6150.000000	85.569	-173.7574
6220.000000	85.424	-172.6861
6300.000000	85.270	-171.3957
6400.000000	85.102	-169.6995
6500.000000	84.964	-167.9393
6600.000000	84.859	-166.1399
6700.000000	84.787	-164.3233
6800.000000	84.752	-162.5071
6900.000000	84.754	-160.7079
7000.000000	84.797	-158.9492
7100.000000	84.885	-157.2629
7200.000000	85.019	-155.6913
7300.000000	85.201	-154.2851
7400.000000	85.430	-153.0921
7500.000000	85.707	-152.1587
7620.000000	86.100	-151.4598
7750.000000	86.598	-151.3541
7880.000000	87.160	-152.1068
8000.000000	87.716	-153.7532
8120.000000	88.278	-156.5107
8250.000000	88.845	-160.9645
8380.000000	89.294	-167.0744
8500.000000	89.533	-174.1017
8620.000000	89.541	177.8972
8750.000000	89.244	168.8495
8850.000000	88.793	162.2082
9000.000000	87.790	153.7071
9120.000000	86.769	148.6664
9250.000000	85.530	145.1170
9380.000000	84.243	143.3692
9500.000000	83.082	143.0450
9620.000000	81.987	143.6441
9750.000000	80.902	145.0308
9880.000000	79.929	146.9426
10000.000000	79.125	149.0259
10150.000000	78.231	151.9296
10300.000000	77.444	155.0834
10440.000000	76.791	158.2248
10600.000000	76.129	162.0630
10750.000000	75.584	165.9431
10900.000000	75.113	170.1691
11060.000000	74.712	175.1751
11200.000000	74.484	-179.9380
11380.000000	74.457	-173.0149
11500.000000	74.672	-168.2304
11720.000000	75.611	-160.3356
11800.000000	76.091	-158.1573
12060.000000	77.786	-155.0547
12200.000000	78.617	-155.8422
12410.000000	79.661	-159.0085
12500.000000	80.053	-160.7067
12650.000000	80.679	-163.6504
12800.000000	81.329	-166.6310
13150.000000	83.199	-174.6021
13200.000000	83.514	-176.0340
13400.000000	84.855	176.8524
13600.000000	86.200	166.6517
13800.000000	87.325	152.4941
14000.000000	88.010	134.5538
14300.000000	87.928	104.6265
14500.000000	87.173	86.3547
14750.000000	85.726	67.8558
15000.000000	84.109	53.6937
15250.000000	82.662	42.0144
15500.000000	81.558	31.0833
15750.000000	80.812	19.7281
16000.000000	80.370	7.1579
16250.000000	80.148	-7.2341
16500.000000	80.042	-23.8683
16750.000000	79.949	-42.9132
17000.000000	79.785	-64.3367
17250.000000	79.476	-87.9742
17500.000000	78.952	-113.3843
17750.000000	78.164	-139.7427
18000.000000	77.127	-166.1500
18250.000000	75.938	167.7722
18500.000000	74.757	141.5042
18750.000000	73.719	113.9428
19000.000000	72.859	84.1925
19250.000000	72.119	52.3591
19500.000000	71.428	20.4064
19750.000000	70.804	-7.1404
