* Measurement data measured by REW V5.20.4
* Source: Auriculares con micrófono (USB-C to 3.5mm Headphone Jack Adapter), MICROPHONE (Volumen general), L, volume: 0,200. Timing signal peak level -33,6 dBFS, measurement signal peak level -31,3 dBFS
* Format: 256k Log Swept Sine, 1 sweep at -12,0 dBFS using an acoustic timing reference
* Dated: 11-dic-2021 13:13:36
* REW Settings:
*  C-weighting compensation: Off
*  Target level: 75.0 dB
* Note: Thieaudio Cable + Foam Delay -0,0705 ms (-24 mm, -0,95 in) using estimated IR delay relative to Acoustic reference on HEADPHONE L with no timing offset
* Measurement: Moondrop SSR L
* Smoothing: 1/12 octave
* Frequency Step: 1/48 octave
* Start Frequency: 20.300 Hz
*
* Freq(Hz)	SPL(dB)	Phase(degrees)
20.299999	81.425	-71.9092
20.600000	81.476	-72.2749
20.900000	81.596	-73.0538
21.200001	81.719	-73.9258
21.400000	81.795	-74.5188
21.799999	81.934	-75.6989
22.000000	81.997	-76.2732
22.400000	82.122	-77.3830
22.700001	82.218	-78.1888
23.000000	82.319	-78.9911
23.299999	82.424	-79.8107
23.600000	82.528	-80.6562
24.000000	82.658	-81.8159
24.299999	82.745	-82.6838
24.700001	82.844	-83.7964
25.000000	82.910	-84.5773
25.400000	82.992	-85.5470
25.799999	83.072	-86.4648
26.200001	83.152	-87.3682
26.500000	83.213	-88.0496
26.900000	83.294	-88.9639
27.200001	83.354	-89.6486
27.600000	83.434	-90.5530
28.000000	83.513	-91.4460
28.500000	83.608	-92.5494
29.000000	83.698	-93.6339
29.500000	83.780	-94.6846
30.000000	83.859	-95.6904
30.400000	83.921	-96.4649
30.700001	83.969	-97.0325
31.100000	84.034	-97.7784
31.500000	84.099	-98.5189
32.000000	84.177	-99.4491
32.500000	84.251	-100.3951
33.000000	84.316	-101.3542
33.500000	84.375	-102.3053
34.000000	84.430	-103.2207
34.500000	84.488	-104.0875
35.000000	84.549	-104.9099
35.500000	84.609	-105.6951
36.000000	84.664	-106.4433
36.500000	84.714	-107.1573
37.000000	84.762	-107.8582
37.500000	84.812	-108.5767
38.200001	84.886	-109.6391
38.700001	84.941	-110.4172
39.500000	85.030	-111.6226
40.000000	85.085	-112.3418
40.599998	85.144	-113.1888
41.200001	85.194	-114.0348
41.799999	85.238	-114.8755
42.500000	85.285	-115.8244
43.099998	85.327	-116.5943
43.700001	85.370	-117.3305
44.400002	85.420	-118.1692
45.000000	85.461	-118.8816
45.500000	85.496	-119.4688
46.200001	85.544	-120.2721
46.799999	85.583	-120.9354
47.500000	85.623	-121.6898
48.200001	85.657	-122.4795
48.700001	85.678	-123.0980
49.400002	85.702	-124.0145
50.000000	85.721	-124.7589
50.799999	85.757	-125.5870
51.500000	85.800	-126.1878
52.200001	85.842	-126.7554
53.000000	85.881	-127.4122
53.799999	85.914	-128.0885
54.500000	85.946	-128.6974
55.200001	85.981	-129.3138
56.000000	86.021	-130.0229
57.000000	86.066	-130.9288
58.000000	86.103	-131.8267
59.000000	86.141	-132.6577
60.000000	86.178	-133.4129
60.799999	86.201	-133.9721
61.500000	86.217	-134.4418
62.200001	86.233	-134.9146
63.000000	86.253	-135.4777
64.000000	86.280	-136.2013
65.000000	86.308	-136.9027
66.000000	86.335	-137.5751
67.000000	86.362	-138.2458
68.000000	86.387	-138.9294
69.000000	86.413	-139.6215
70.000000	86.439	-140.3142
71.000000	86.455	-140.9790
72.000000	86.463	-141.5766
73.000000	86.471	-142.1104
74.000000	86.485	-142.6198
75.000000	86.502	-143.1347
76.199997	86.522	-143.7683
77.500000	86.538	-144.4605
78.800003	86.548	-145.1422
80.000000	86.556	-145.7593
81.199997	86.566	-146.3653
82.500000	86.580	-147.0023
83.800003	86.594	-147.6148
85.000000	86.605	-148.1634
86.199997	86.616	-148.6980
87.500000	86.625	-149.2589
88.500000	86.631	-149.6800
90.000000	86.638	-150.3043
91.199997	86.644	-150.8023
92.500000	86.650	-151.3423
93.800003	86.657	-151.8733
95.000000	86.665	-152.3542
96.199997	86.678	-152.8409
97.500000	86.695	-153.3665
98.800003	86.706	-153.8407
100.000000	86.702	-154.2128
101.500000	86.690	-154.6557
103.000000	86.684	-155.1369
104.400002	86.685	-155.6050
106.000000	86.687	-156.1349
107.500000	86.690	-156.6145
109.000000	86.692	-157.0719
110.599998	86.692	-157.5387
112.000000	86.692	-157.9371
113.800003	86.692	-158.4436
115.000000	86.693	-158.7809
117.199997	86.694	-159.3970
118.000000	86.693	-159.6169
120.599998	86.686	-160.3014
122.000000	86.683	-160.6505
124.099998	86.678	-161.1639
125.000000	86.676	-161.3827
126.500000	86.674	-161.7433
128.000000	86.671	-162.0948
131.500000	86.663	-162.8754
132.000000	86.662	-162.9832
134.000000	86.655	-163.4089
136.000000	86.646	-163.8303
138.000000	86.637	-164.2460
140.000000	86.627	-164.6513
143.000000	86.612	-165.2354
145.000000	86.602	-165.6049
147.500000	86.587	-166.0449
150.000000	86.570	-166.4811
152.500000	86.556	-166.9148
155.000000	86.542	-167.3310
157.500000	86.526	-167.7329
160.000000	86.510	-168.1280
162.500000	86.492	-168.5139
165.000000	86.472	-168.8816
167.500000	86.451	-169.2301
170.000000	86.429	-169.5682
172.500000	86.408	-169.8992
175.000000	86.388	-170.2218
177.500000	86.367	-170.5355
180.000000	86.345	-170.8378
182.500000	86.323	-171.1259
185.000000	86.299	-171.4025
187.500000	86.275	-171.6730
190.000000	86.251	-171.9341
192.500000	86.227	-172.1807
195.000000	86.203	-172.4143
197.500000	86.179	-172.6398
200.000000	86.155	-172.8653
203.000000	86.124	-173.1389
206.000000	86.093	-173.4027
209.000000	86.062	-173.6503
212.000000	86.031	-173.8871
214.000000	86.011	-174.0413
218.000000	85.971	-174.3378
220.000000	85.951	-174.4786
224.000000	85.910	-174.7460
227.000000	85.877	-174.9353
230.000000	85.844	-175.1139
233.000000	85.811	-175.2819
236.000000	85.779	-175.4406
240.000000	85.735	-175.6410
243.000000	85.703	-175.7846
247.000000	85.660	-175.9684
250.000000	85.628	-176.1017
254.000000	85.583	-176.2721
258.000000	85.538	-176.4269
262.000000	85.494	-176.5642
265.000000	85.461	-176.6572
269.000000	85.417	-176.7695
272.000000	85.384	-176.8464
276.000000	85.338	-176.9418
280.000000	85.294	-177.0287
285.000000	85.238	-177.1279
290.000000	85.183	-177.2160
295.000000	85.129	-177.2877
300.000000	85.076	-177.3446
304.000000	85.034	-177.3799
307.000000	85.002	-177.4003
311.000000	84.959	-177.4187
315.000000	84.915	-177.4278
320.000000	84.860	-177.4273
325.000000	84.806	-177.4111
330.000000	84.753	-177.3866
335.000000	84.701	-177.3594
340.000000	84.649	-177.3242
345.000000	84.596	-177.2780
350.000000	84.543	-177.2212
355.000000	84.489	-177.1543
360.000000	84.435	-177.0793
365.000000	84.383	-176.9951
370.000000	84.334	-176.8972
375.000000	84.285	-176.7855
382.000000	84.216	-176.6119
387.000000	84.166	-176.4780
395.000000	84.088	-176.2485
400.000000	84.039	-176.0973
406.000000	83.982	-175.9101
412.000000	83.925	-175.7162
418.000000	83.868	-175.5125
425.000000	83.802	-175.2573
431.000000	83.746	-175.0234
437.000000	83.691	-174.7809
444.000000	83.628	-174.4912
450.000000	83.574	-174.2357
455.000000	83.529	-174.0161
462.000000	83.469	-173.6984
468.000000	83.418	-173.4169
475.000000	83.360	-173.0766
482.000000	83.303	-172.7257
487.000000	83.261	-172.4684
494.000000	83.204	-172.0988
500.000000	83.156	-171.7755
508.000000	83.092	-171.3367
515.000000	83.038	-170.9421
522.000000	82.985	-170.5353
530.000000	82.925	-170.0554
538.000000	82.866	-169.5621
545.000000	82.815	-169.1231
552.000000	82.766	-168.6807
560.000000	82.711	-168.1720
570.000000	82.645	-167.5242
580.000000	82.579	-166.8577
590.000000	82.515	-166.1743
600.000000	82.452	-165.4738
608.000000	82.405	-164.9000
615.000000	82.364	-164.3890
622.000000	82.325	-163.8721
630.000000	82.280	-163.2743
640.000000	82.226	-162.5117
650.000000	82.175	-161.7313
660.000000	82.127	-160.9382
670.000000	82.082	-160.1365
680.000000	82.039	-159.3244
690.000000	81.997	-158.5004
700.000000	81.958	-157.6628
710.000000	81.921	-156.8103
720.000000	81.887	-155.9484
730.000000	81.856	-155.0791
740.000000	81.827	-154.1989
750.000000	81.801	-153.3082
762.000000	81.774	-152.2271
775.000000	81.749	-151.0381
788.000000	81.730	-149.8312
800.000000	81.717	-148.7069
812.000000	81.710	-147.5779
825.000000	81.707	-146.3528
838.000000	81.710	-145.1246
850.000000	81.719	-143.9866
862.000000	81.732	-142.8444
875.000000	81.752	-141.6054
885.000000	81.772	-140.6564
900.000000	81.807	-139.2451
912.000000	81.842	-138.1262
925.000000	81.884	-136.9258
938.000000	81.932	-135.7404
950.000000	81.982	-134.6554
962.000000	82.036	-133.5749
975.000000	82.100	-132.4168
988.000000	82.169	-131.2810
1000.000000	82.237	-130.2549
1015.000000	82.327	-129.0005
1030.000000	82.423	-127.7768
1044.000000	82.518	-126.6659
1060.000000	82.632	-125.4370
1075.000000	82.745	-124.3269
1090.000000	82.863	-123.2592
1106.000000	82.994	-122.1698
1120.000000	83.112	-121.2622
1138.000000	83.268	-120.1620
1150.000000	83.374	-119.4722
1172.000000	83.572	-118.3096
1180.000000	83.644	-117.9230
1206.000000	83.877	-116.7971
1220.000000	83.999	-116.2659
1241.000000	84.174	-115.5549
1250.000000	84.246	-115.2793
1265.000000	84.359	-114.8539
1280.000000	84.466	-114.4614
1315.000000	84.691	-113.6150
1320.000000	84.720	-113.4976
1340.000000	84.832	-113.0291
1360.000000	84.937	-112.5568
1380.000000	85.034	-112.0754
1400.000000	85.125	-111.5806
1430.000000	85.252	-110.8101
1450.000000	85.332	-110.2777
1475.000000	85.430	-109.5934
1500.000000	85.524	-108.8889
1525.000000	85.617	-108.1618
1550.000000	85.708	-107.4128
1575.000000	85.799	-106.6440
1600.000000	85.891	-105.8601
1625.000000	85.983	-105.0643
1650.000000	86.075	-104.2579
1675.000000	86.169	-103.4441
1700.000000	86.265	-102.6246
1725.000000	86.363	-101.7999
1750.000000	86.463	-100.9719
1775.000000	86.565	-100.1428
1800.000000	86.669	-99.3137
1825.000000	86.775	-98.4870
1850.000000	86.884	-97.6664
1875.000000	86.996	-96.8533
1900.000000	87.110	-96.0476
1925.000000	87.226	-95.2501
1950.000000	87.345	-94.4631
1975.000000	87.466	-93.6884
2000.000000	87.590	-92.9266
2030.000000	87.741	-92.0313
2060.000000	87.896	-91.1603
2090.000000	88.054	-90.3149
2120.000000	88.217	-89.4954
2140.000000	88.326	-88.9651
2180.000000	88.550	-87.9462
2200.000000	88.663	-87.4580
2240.000000	88.894	-86.5261
2270.000000	89.070	-85.8693
2300.000000	89.248	-85.2516
2330.000000	89.429	-84.6750
2360.000000	89.612	-84.1412
2400.000000	89.857	-83.4981
2430.000000	90.043	-83.0703
2470.000000	90.292	-82.5772
2500.000000	90.479	-82.2666
2540.000000	90.728	-81.9319
2580.000000	90.976	-81.6909
2620.000000	91.221	-81.5488
2650.000000	91.403	-81.5091
2690.000000	91.641	-81.5455
2720.000000	91.815	-81.6390
2760.000000	92.041	-81.8517
2800.000000	92.259	-82.1643
2850.000000	92.516	-82.6912
2900.000000	92.754	-83.3604
2950.000000	92.970	-84.1585
3000.000000	93.161	-85.0681
3040.000000	93.294	-85.8635
3070.000000	93.383	-86.4925
3110.000000	93.484	-87.3650
3150.000000	93.567	-88.2644
3200.000000	93.642	-89.4070
3250.000000	93.687	-90.5446
3300.000000	93.702	-91.6487
3350.000000	93.689	-92.6916
3400.000000	93.648	-93.6479
3450.000000	93.584	-94.4953
3500.000000	93.499	-95.2160
3550.000000	93.397	-95.7971
3600.000000	93.281	-96.2297
3650.000000	93.157	-96.5105
3700.000000	93.027	-96.6435
3750.000000	92.895	-96.6374
3820.000000	92.713	-96.4158
3870.000000	92.587	-96.1220
3950.000000	92.397	-95.4548
4000.000000	92.288	-94.9348
4060.000000	92.166	-94.2273
4120.000000	92.057	-93.4460
4180.000000	91.959	-92.6061
4250.000000	91.858	-91.5727
4310.000000	91.784	-90.6572
4370.000000	91.721	-89.7259
4440.000000	91.659	-88.6316
4500.000000	91.616	-87.6982
4550.000000	91.587	-86.9299
4620.000000	91.555	-85.8764
4680.000000	91.535	-85.0000
4750.000000	91.518	-84.0165
4820.000000	91.508	-83.0809
4870.000000	91.504	-82.4448
4940.000000	91.502	-81.6030
5000.000000	91.502	-80.9295
5080.000000	91.502	-80.1033
5150.000000	91.502	-79.4485
5220.000000	91.499	-78.8574
5300.000000	91.491	-78.2591
5380.000000	91.476	-77.7392
5450.000000	91.456	-77.3440
5520.000000	91.429	-76.9997
5600.000000	91.386	-76.6624
5700.000000	91.313	-76.3119
5800.000000	91.217	-76.0177
5900.000000	91.096	-75.7525
6000.000000	90.948	-75.4880
6080.000000	90.811	-75.2564
6150.000000	90.676	-75.0242
6220.000000	90.529	-74.7516
6300.000000	90.346	-74.3772
6400.000000	90.098	-73.7971
6500.000000	89.832	-73.0712
6600.000000	89.553	-72.1793
6700.000000	89.264	-71.1076
6800.000000	88.972	-69.8495
6900.000000	88.681	-68.4021
7000.000000	88.398	-66.7728
7100.000000	88.129	-64.9854
7200.000000	87.878	-63.0755
7300.000000	87.648	-61.0761
7400.000000	87.438	-59.0080
7500.000000	87.249	-56.8839
7620.000000	87.052	-54.2831
7750.000000	86.878	-51.4412
7880.000000	86.749	-48.6250
8000.000000	86.671	-46.0960
8120.000000	86.631	-43.6834
8250.000000	86.631	-41.2585
8380.000000	86.671	-39.0882
8500.000000	86.739	-37.3587
8620.000000	86.830	-35.9344
8750.000000	86.948	-34.7780
8850.000000	87.045	-34.1842
9000.000000	87.188	-33.8024
9120.000000	87.289	-33.9456
9250.000000	87.369	-34.5399
9380.000000	87.404	-35.5530
9500.000000	87.387	-36.8006
9620.000000	87.314	-38.2686
9750.000000	87.166	-39.9968
9880.000000	86.945	-41.7420
10000.000000	86.679	-43.2604
10150.000000	86.272	-44.9041
10300.000000	85.800	-46.1556
10440.000000	85.319	-46.9113
10600.000000	84.743	-47.2723
10750.000000	84.198	-47.1497
10900.000000	83.664	-46.6304
11060.000000	83.122	-45.7078
11200.000000	82.680	-44.6518
11380.000000	82.163	-43.0506
11500.000000	81.853	-41.8822
11720.000000	81.359	-39.6357
11800.000000	81.204	-38.8084
12060.000000	80.785	-36.1806
12200.000000	80.614	-34.8512
12410.000000	80.431	-33.0413
12500.000000	80.380	-32.3547
12650.000000	80.333	-31.3652
12800.000000	80.337	-30.6203
13150.000000	80.535	-30.2623
13200.000000	80.582	-30.4161
13400.000000	80.806	-31.6765
13600.000000	81.061	-34.1165
13800.000000	81.310	-37.8966
14000.000000	81.506	-43.1005
14300.000000	81.600	-53.4774
14500.000000	81.470	-61.8191
14750.000000	81.041	-73.2165
15000.000000	80.316	-84.9100
15250.000000	79.340	-96.2454
15500.000000	78.191	-106.9331
15750.000000	76.956	-117.0245
16000.000000	75.709	-126.7812
16250.000000	74.513	-136.5379
16500.000000	73.409	-146.6202
16750.000000	72.428	-157.3127
17000.000000	71.592	-168.8646
17250.000000	70.916	178.5042
17500.000000	70.411	164.5897
17750.000000	70.089	149.1762
18000.000000	69.958	132.0134
18250.000000	70.025	112.7849
18500.000000	70.285	91.0678
18750.000000	70.705	66.3774
19000.000000	71.224	38.3531
19250.000000	71.753	7.2755
19500.000000	72.203	-24.9108
19750.000000	72.512	-53.4398
