* Measurement data measured by REW V5.19
* Source: Frequency Response Averaged data
* Format: Averaged data produced from Jan 13 20:02:33, Jan 13 20:02:58
* Dated: 13-Jan-2022 20:03:10
* REW Settings:
*  C-weighting compensation: Off
*  Target level: 75.0 dB
* Note: Averaged data produced from Jan 13 20:02:33, Jan 13 20:02:58
* Measurement: YH802 R
* Smoothing: 1/24 octave
* Frequency Step: 1/48 octave
* Start Frequency: 20.000 Hz
*
* Freq(Hz)	SPL(dB)
20.000000	91.375
20.299999	91.309
20.600000	91.256
20.900000	91.225
21.200001	91.222
21.400000	91.239
21.799999	91.306
22.000000	91.353
22.400000	91.459
22.700001	91.547
23.000000	91.640
23.299999	91.739
23.600000	91.841
24.000000	91.977
24.299999	92.073
24.700001	92.187
25.000000	92.258
25.400000	92.334
25.799999	92.391
26.200001	92.434
26.500000	92.459
26.900000	92.485
27.200001	92.500
27.600000	92.514
28.000000	92.519
28.500000	92.517
29.000000	92.517
29.500000	92.535
30.000000	92.575
30.400000	92.620
30.700001	92.661
31.100000	92.723
31.500000	92.791
32.000000	92.876
32.500000	92.953
33.000000	93.016
33.500000	93.067
34.000000	93.110
34.500000	93.145
35.000000	93.173
35.500000	93.194
36.000000	93.210
36.500000	93.223
37.000000	93.233
37.500000	93.237
38.200001	93.234
38.700001	93.228
39.500000	93.217
40.000000	93.213
40.599998	93.218
41.200001	93.231
41.799999	93.248
42.500000	93.264
43.099998	93.272
43.700001	93.275
44.400002	93.273
45.000000	93.265
45.500000	93.258
46.200001	93.252
46.799999	93.247
47.500000	93.238
48.200001	93.227
48.700001	93.217
49.400002	93.203
50.000000	93.188
50.799999	93.169
51.500000	93.156
52.200001	93.145
53.000000	93.127
53.799999	93.108
54.500000	93.096
55.200001	93.090
56.000000	93.085
57.000000	93.069
58.000000	93.044
59.000000	93.019
60.000000	92.996
60.799999	92.977
61.500000	92.962
62.200001	92.950
63.000000	92.944
64.000000	92.945
65.000000	92.945
66.000000	92.939
67.000000	92.931
68.000000	92.921
69.000000	92.905
70.000000	92.887
71.000000	92.873
72.000000	92.863
73.000000	92.858
74.000000	92.862
75.000000	92.869
76.199997	92.872
77.500000	92.867
78.800003	92.855
80.000000	92.843
81.199997	92.837
82.500000	92.834
83.800003	92.837
85.000000	92.843
86.199997	92.846
87.500000	92.844
88.500000	92.837
90.000000	92.822
91.199997	92.813
92.500000	92.812
93.800003	92.818
95.000000	92.827
96.199997	92.837
97.500000	92.843
98.800003	92.839
100.000000	92.827
101.500000	92.808
103.000000	92.794
104.400002	92.785
106.000000	92.769
107.500000	92.741
109.000000	92.698
110.599998	92.640
112.000000	92.586
113.800003	92.508
115.000000	92.447
117.199997	92.323
118.000000	92.282
120.599998	92.217
122.000000	92.255
124.099998	92.401
125.000000	92.479
126.500000	92.600
128.000000	92.696
131.500000	92.810
132.000000	92.818
134.000000	92.841
136.000000	92.851
138.000000	92.838
140.000000	92.805
143.000000	92.757
145.000000	92.729
147.500000	92.682
150.000000	92.622
152.500000	92.558
155.000000	92.494
157.500000	92.422
160.000000	92.344
162.500000	92.285
165.000000	92.267
167.500000	92.293
170.000000	92.338
172.500000	92.372
175.000000	92.376
177.500000	92.344
180.000000	92.289
182.500000	92.241
185.000000	92.216
187.500000	92.205
190.000000	92.197
192.500000	92.188
195.000000	92.177
197.500000	92.161
200.000000	92.136
203.000000	92.101
206.000000	92.069
209.000000	92.029
212.000000	91.979
214.000000	91.948
218.000000	91.887
220.000000	91.851
224.000000	91.775
227.000000	91.721
230.000000	91.668
233.000000	91.618
236.000000	91.569
240.000000	91.503
243.000000	91.453
247.000000	91.392
250.000000	91.342
254.000000	91.267
258.000000	91.191
262.000000	91.114
265.000000	91.061
269.000000	90.993
272.000000	90.943
276.000000	90.876
280.000000	90.812
285.000000	90.735
290.000000	90.658
295.000000	90.585
300.000000	90.515
304.000000	90.457
307.000000	90.416
311.000000	90.361
315.000000	90.302
320.000000	90.222
325.000000	90.146
330.000000	90.076
335.000000	90.007
340.000000	89.933
345.000000	89.856
350.000000	89.784
355.000000	89.719
360.000000	89.656
365.000000	89.589
370.000000	89.520
375.000000	89.452
382.000000	89.360
387.000000	89.295
395.000000	89.192
400.000000	89.128
406.000000	89.051
412.000000	88.974
418.000000	88.898
425.000000	88.822
431.000000	88.762
437.000000	88.701
444.000000	88.629
450.000000	88.566
455.000000	88.512
462.000000	88.433
468.000000	88.368
475.000000	88.303
482.000000	88.245
487.000000	88.200
494.000000	88.130
500.000000	88.071
508.000000	88.001
515.000000	87.941
522.000000	87.876
530.000000	87.803
538.000000	87.735
545.000000	87.675
552.000000	87.613
560.000000	87.543
570.000000	87.475
580.000000	87.424
590.000000	87.365
600.000000	87.299
608.000000	87.249
615.000000	87.209
622.000000	87.171
630.000000	87.128
640.000000	87.076
650.000000	87.024
660.000000	86.976
670.000000	86.934
680.000000	86.898
690.000000	86.867
700.000000	86.834
710.000000	86.800
720.000000	86.767
730.000000	86.740
740.000000	86.720
750.000000	86.705
762.000000	86.685
775.000000	86.666
788.000000	86.655
800.000000	86.651
812.000000	86.653
825.000000	86.657
838.000000	86.666
850.000000	86.681
862.000000	86.701
875.000000	86.726
885.000000	86.749
900.000000	86.791
912.000000	86.825
925.000000	86.869
938.000000	86.922
950.000000	86.974
962.000000	87.025
975.000000	87.083
988.000000	87.143
1000.000000	87.204
1015.000000	87.289
1030.000000	87.370
1044.000000	87.442
1060.000000	87.524
1075.000000	87.600
1090.000000	87.678
1106.000000	87.765
1120.000000	87.844
1138.000000	87.936
1150.000000	87.988
1172.000000	88.076
1180.000000	88.108
1206.000000	88.208
1220.000000	88.263
1241.000000	88.344
1250.000000	88.376
1265.000000	88.427
1280.000000	88.475
1315.000000	88.576
1320.000000	88.591
1340.000000	88.648
1360.000000	88.707
1380.000000	88.764
1400.000000	88.821
1430.000000	88.914
1450.000000	88.980
1475.000000	89.071
1500.000000	89.183
1525.000000	89.315
1550.000000	89.474
1575.000000	89.643
1600.000000	89.772
1625.000000	89.801
1650.000000	89.713
1675.000000	89.554
1700.000000	89.397
1725.000000	89.292
1750.000000	89.262
1775.000000	89.302
1800.000000	89.382
1825.000000	89.475
1850.000000	89.577
1875.000000	89.702
1900.000000	89.861
1925.000000	90.057
1950.000000	90.274
1975.000000	90.488
2000.000000	90.680
2030.000000	90.875
2060.000000	91.037
2090.000000	91.181
2120.000000	91.316
2140.000000	91.403
2180.000000	91.574
2200.000000	91.658
2240.000000	91.822
2270.000000	91.939
2300.000000	92.052
2330.000000	92.159
2360.000000	92.263
2400.000000	92.408
2430.000000	92.522
2470.000000	92.667
2500.000000	92.767
2540.000000	92.888
2580.000000	92.997
2620.000000	93.089
2650.000000	93.145
2690.000000	93.206
2720.000000	93.241
2760.000000	93.265
2800.000000	93.265
2850.000000	93.242
2900.000000	93.205
2950.000000	93.155
3000.000000	93.100
3040.000000	93.048
3070.000000	92.997
3110.000000	92.912
3150.000000	92.814
3200.000000	92.691
3250.000000	92.577
3300.000000	92.473
3350.000000	92.372
3400.000000	92.269
3450.000000	92.174
3500.000000	92.085
3550.000000	91.996
3600.000000	91.913
3650.000000	91.845
3700.000000	91.795
3750.000000	91.768
3820.000000	91.776
3870.000000	91.819
3950.000000	91.954
4000.000000	92.068
4060.000000	92.210
4120.000000	92.352
4180.000000	92.497
4250.000000	92.679
4310.000000	92.854
4370.000000	93.050
4440.000000	93.303
4500.000000	93.537
4550.000000	93.740
4620.000000	94.037
4680.000000	94.298
4750.000000	94.606
4820.000000	94.911
4870.000000	95.126
4940.000000	95.421
5000.000000	95.663
5080.000000	95.958
5150.000000	96.177
5220.000000	96.350
5300.000000	96.484
5380.000000	96.546
5450.000000	96.540
5520.000000	96.484
5600.000000	96.379
5700.000000	96.217
5800.000000	96.066
5900.000000	95.978
6000.000000	95.920
6080.000000	95.875
6150.000000	95.867
6220.000000	95.886
6300.000000	95.931
6400.000000	96.017
6500.000000	96.120
6600.000000	96.214
6700.000000	96.273
6800.000000	96.286
6900.000000	96.266
7000.000000	96.236
7100.000000	96.224
7200.000000	96.261
7300.000000	96.376
7400.000000	96.587
7500.000000	96.911
7620.000000	97.462
7750.000000	98.231
7880.000000	99.021
8000.000000	99.503
8120.000000	99.453
8250.000000	98.618
8380.000000	97.071
8500.000000	95.279
8620.000000	93.420
8750.000000	91.546
8850.000000	90.253
9000.000000	88.517
9120.000000	87.279
9250.000000	86.091
9380.000000	85.041
9500.000000	84.155
9620.000000	83.332
9750.000000	82.518
9880.000000	81.789
10000.000000	81.185
10150.000000	80.520
10300.000000	79.950
10440.000000	79.506
10600.000000	79.106
10750.000000	78.800
10900.000000	78.546
11060.000000	78.372
11200.000000	78.312
11380.000000	78.327
11500.000000	78.387
11720.000000	78.610
11800.000000	78.731
12060.000000	79.283
12200.000000	79.703
12410.000000	80.528
12500.000000	80.948
12650.000000	81.722
12800.000000	82.588
13150.000000	84.963
13200.000000	85.337
13400.000000	86.849
13600.000000	88.251
13800.000000	89.394
14000.000000	90.282
14300.000000	91.415
14500.000000	92.254
14750.000000	93.583
15000.000000	95.028
15250.000000	95.823
15500.000000	95.086
15750.000000	92.593
16000.000000	88.854
16250.000000	84.766
16500.000000	81.304
16750.000000	78.971
17000.000000	77.521
17250.000000	76.563
17500.000000	75.977
17750.000000	75.703
18000.000000	75.673
18250.000000	75.871
18500.000000	76.229
18750.000000	76.633
19000.000000	76.999
19250.000000	77.247
19500.000000	77.289
19750.000000	77.086
