* Measurement data measured by REW V5.20
* Source: USB-C to 3.5mm Headphone Jack Adapter, USB-C to 3.5mm Headphone Jack Adapter, 0, volume: 0.138
* Format: 256k Log Swept Sine, 1 sweep at -12.0 dBFS with no timing reference
* Dated: Jun 27, 2022 6:53:26 PM
* REW Settings:
*  C-weighting compensation: Off
*  Target level: 75.0 dB
* Note: Moondrop tips
* Measurement: S2 000 L
* Smoothing: None
* Frequency Step: 1/48 octave
* Start Frequency: 20.300 Hz
*
* Freq(Hz)	SPL(dB)	Phase(degrees)
20.299999	107.070328	9.7819
20.600000	107.084679	9.3220
20.900000	107.094231	8.9100
21.200001	107.103302	8.4952
21.400000	107.109665	8.2136
21.799999	107.122932	7.6408
22.000000	107.129562	7.3529
22.400000	107.142288	6.7829
22.700001	107.151001	6.3663
23.000000	107.158844	5.9601
23.299999	107.165634	5.5624
23.600000	107.171227	5.1701
24.000000	107.176598	4.6510
24.299999	107.179161	4.2630
24.700001	107.181099	3.7477
25.000000	107.181786	3.3641
25.400000	107.182098	2.8596
25.799999	107.182053	2.3676
26.200001	107.181953	1.8916
26.500000	107.182091	1.5448
26.900000	107.182671	1.0915
27.200001	107.183266	0.7541
27.600000	107.183609	0.3029
28.000000	107.182678	-0.1504
28.500000	107.179192	-0.7121
29.000000	107.174240	-1.2576
29.500000	107.169395	-1.7862
30.000000	107.164757	-2.3064
30.400000	107.160278	-2.7200
30.700001	107.156021	-3.0274
31.100000	107.149170	-3.4307
31.500000	107.141579	-3.8241
32.000000	107.132179	-4.3042
32.500000	107.123245	-4.7773
33.000000	107.114067	-5.2450
33.500000	107.104050	-5.7026
34.000000	107.093445	-6.1454
34.500000	107.082764	-6.5746
35.000000	107.071846	-6.9949
35.500000	107.060158	-7.4070
36.000000	107.047867	-7.8080
36.500000	107.036041	-8.1976
37.000000	107.025620	-8.5824
37.500000	107.016151	-8.9698
38.200001	107.002022	-9.5116
38.700001	106.990959	-9.8850
39.500000	106.975014	-10.4579
40.000000	106.966476	-10.8198
40.599998	106.955002	-11.2667
41.200001	106.941238	-11.7062
41.799999	106.928619	-12.1200
42.500000	106.919571	-12.5916
43.099998	106.914284	-13.0176
43.700001	106.906975	-13.4646
44.400002	106.895851	-13.9957
45.000000	106.885712	-14.4647
45.500000	106.875473	-14.8705
46.200001	106.855179	-15.4385
46.799999	106.833618	-15.8936
47.500000	106.808838	-16.3891
48.200001	106.784271	-16.8810
48.700001	106.764626	-17.2327
49.400002	106.735161	-17.7102
50.000000	106.710815	-18.1085
50.799999	106.679466	-18.6317
51.500000	106.651894	-19.0661
52.200001	106.624260	-19.4843
53.000000	106.589874	-19.9627
53.799999	106.556641	-20.4351
54.500000	106.532593	-20.8639
55.200001	106.505623	-21.2844
56.000000	106.471588	-21.6791
57.000000	106.433647	-22.2136
58.000000	106.382401	-22.8173
59.000000	106.369202	-23.3021
60.000000	106.358910	-23.9774
60.799999	106.299706	-24.3795
61.500000	106.252846	-24.5802
62.200001	106.224998	-24.8931
63.000000	106.190971	-25.3756
64.000000	106.150291	-25.8767
65.000000	106.114006	-26.3595
66.000000	106.067741	-26.8448
67.000000	106.026337	-27.3331
68.000000	105.985008	-27.8031
69.000000	105.943306	-28.2491
70.000000	105.898933	-28.7062
71.000000	105.854889	-29.1536
72.000000	105.811775	-29.5904
73.000000	105.768684	-30.0182
74.000000	105.725090	-30.4450
75.000000	105.680504	-30.8638
76.199997	105.628174	-31.3613
77.500000	105.569023	-31.8924
78.800003	105.511559	-32.3999
80.000000	105.456177	-32.8794
81.199997	105.405205	-33.3109
82.500000	105.348007	-33.8080
83.800003	105.287331	-34.2678
85.000000	105.233360	-34.6997
86.199997	105.180092	-35.1205
87.500000	105.120613	-35.5764
88.500000	105.074753	-35.9049
90.000000	105.005417	-36.3989
91.199997	104.951180	-36.7866
92.500000	104.892303	-37.2007
93.800003	104.832504	-37.6056
95.000000	104.777039	-37.9726
96.199997	104.721748	-38.3318
97.500000	104.661209	-38.6967
98.800003	104.600311	-39.0751
100.000000	104.542747	-39.4108
101.500000	104.473183	-39.8167
103.000000	104.400970	-40.2030
104.400002	104.331688	-40.5470
106.000000	104.254967	-40.9337
107.500000	104.181152	-41.2628
109.000000	104.107620	-41.5654
110.599998	104.027298	-41.8774
112.000000	103.962219	-42.1130
113.800003	103.869858	-42.3832
115.000000	103.813499	-42.5699
117.199997	103.701874	-42.7856
118.000000	103.652985	-42.8495
120.599998	103.561279	-42.9987
122.000000	103.495758	-42.6033
124.099998	103.466888	-42.3660
125.000000	103.481262	-42.2650
126.500000	103.519142	-42.2391
128.000000	103.571556	-42.5269
131.500000	103.616043	-43.8561
132.000000	103.611755	-44.0641
134.000000	103.576927	-44.8626
136.000000	103.529457	-45.5924
138.000000	103.474281	-46.2795
140.000000	103.410797	-46.9443
143.000000	103.301697	-47.8793
145.000000	103.222305	-48.4305
147.500000	103.120514	-49.0751
150.000000	103.017914	-49.6325
152.500000	102.917931	-50.1415
155.000000	102.821960	-50.6142
157.500000	102.725769	-51.0516
160.000000	102.634613	-51.4693
162.500000	102.542648	-51.8581
165.000000	102.455078	-52.2352
167.500000	102.367966	-52.5971
170.000000	102.284149	-52.9470
172.500000	102.200439	-53.2822
175.000000	102.118668	-53.6071
177.500000	102.037659	-53.9270
180.000000	101.965591	-54.2266
182.500000	101.881699	-54.5161
185.000000	101.805954	-54.8009
187.500000	101.731178	-55.0778
190.000000	101.654968	-55.3500
192.500000	101.583366	-55.6133
195.000000	101.511002	-55.8699
197.500000	101.439293	-56.1169
200.000000	101.367996	-56.3590
203.000000	101.285400	-56.6363
206.000000	101.201744	-56.8988
209.000000	101.121002	-57.1526
212.000000	101.038528	-57.4013
214.000000	100.984421	-57.5573
218.000000	100.881432	-57.8536
220.000000	100.828300	-57.9990
224.000000	100.724915	-58.2653
227.000000	100.648415	-58.4553
230.000000	100.572517	-58.6234
233.000000	100.497452	-58.7842
236.000000	100.420769	-58.9208
240.000000	100.294571	-58.9432
243.000000	100.248055	-59.1036
247.000000	100.151344	-59.1286
250.000000	100.084923	-59.0623
254.000000	100.011826	-58.8872
258.000000	99.968719	-58.6542
262.000000	99.969467	-58.4838
265.000000	99.989975	-58.5369
269.000000	100.010788	-58.8846
272.000000	100.011215	-59.2815
276.000000	99.982071	-59.8538
280.000000	99.932335	-60.3815
285.000000	99.856308	-60.9525
290.000000	99.770485	-61.4237
295.000000	99.681458	-61.8260
300.000000	99.579506	-62.2842
304.000000	99.530853	-62.3654
307.000000	99.484146	-62.5371
311.000000	99.423347	-62.7252
315.000000	99.363068	-62.9215
320.000000	99.292168	-63.1137
325.000000	99.223083	-63.3103
330.000000	99.160698	-63.4902
335.000000	99.098129	-63.6416
340.000000	99.040382	-63.7927
345.000000	98.982895	-63.9412
350.000000	98.929863	-64.0756
355.000000	98.877731	-64.2071
360.000000	98.827919	-64.2922
365.000000	98.780914	-64.4515
370.000000	98.737762	-64.5591
375.000000	98.695168	-64.6755
382.000000	98.638428	-64.8222
387.000000	98.599968	-64.9121
395.000000	98.543388	-65.0648
400.000000	98.509140	-65.1565
406.000000	98.470688	-65.2502
412.000000	98.438004	-65.3490
418.000000	98.403610	-65.4462
425.000000	98.365486	-65.5595
431.000000	98.338295	-65.6524
437.000000	98.309349	-65.7370
444.000000	98.281380	-65.8288
450.000000	98.257683	-65.9246
455.000000	98.241493	-65.9896
462.000000	98.215805	-66.0782
468.000000	98.198570	-66.1625
475.000000	98.177483	-66.2490
482.000000	98.157990	-66.3354
487.000000	98.145752	-66.3889
494.000000	98.128281	-66.4802
500.000000	98.115540	-66.5415
508.000000	98.097359	-66.6242
515.000000	98.083092	-66.7099
522.000000	98.067619	-66.7526
530.000000	98.051254	-66.8061
538.000000	98.040665	-66.8454
545.000000	98.024773	-66.8505
552.000000	98.011223	-66.8562
560.000000	97.999161	-66.8363
570.000000	97.989807	-66.7540
580.000000	97.981697	-66.6312
590.000000	97.984947	-66.4820
600.000000	97.994125	-66.2655
608.000000	98.004425	-66.1102
615.000000	98.022430	-65.9479
622.000000	98.043846	-65.7811
630.000000	98.074097	-65.6314
640.000000	98.123230	-65.4047
650.000000	98.177704	-65.2106
660.000000	98.240730	-65.1382
670.000000	98.303429	-64.9057
680.000000	98.372566	-64.8069
690.000000	98.444038	-64.7237
700.000000	98.518066	-64.6573
710.000000	98.595268	-64.6203
720.000000	98.674370	-64.6069
730.000000	98.751503	-64.6087
740.000000	98.832458	-64.6297
750.000000	98.914406	-64.6580
762.000000	99.014252	-64.7068
775.000000	99.117661	-64.7942
788.000000	99.225075	-64.8882
800.000000	99.324867	-64.9902
812.000000	99.426605	-65.1112
825.000000	99.535629	-65.2424
838.000000	99.647476	-65.3706
850.000000	99.748329	-65.5399
862.000000	99.848213	-65.7065
875.000000	99.959595	-65.8912
885.000000	100.045441	-66.0549
900.000000	100.176994	-66.4004
912.000000	100.276688	-66.4880
925.000000	100.388657	-66.7173
938.000000	100.499557	-66.9809
950.000000	100.602776	-67.2213
962.000000	100.706589	-67.4876
975.000000	100.816116	-67.7714
988.000000	100.925537	-68.1025
1000.000000	101.026566	-68.3996
1015.000000	101.152359	-68.8010
1030.000000	101.273849	-69.2231
1044.000000	101.387474	-69.6500
1060.000000	101.512909	-70.1609
1075.000000	101.627388	-70.6556
1090.000000	101.736176	-71.1944
1106.000000	101.847458	-71.7856
1120.000000	101.940598	-72.3129
1138.000000	102.056274	-73.0280
1150.000000	102.125740	-73.5019
1172.000000	102.243896	-74.4044
1180.000000	102.283966	-74.7315
1206.000000	102.402481	-75.7983
1220.000000	102.456360	-76.3636
1241.000000	102.527679	-77.1944
1250.000000	102.556030	-77.5433
1265.000000	102.596130	-78.1123
1280.000000	102.632332	-78.6776
1315.000000	102.696106	-79.8859
1320.000000	102.703751	-80.0144
1340.000000	102.728180	-80.6672
1360.000000	102.746605	-81.2403
1380.000000	102.752838	-81.7256
1400.000000	102.766861	-82.2256
1430.000000	102.772606	-82.8247
1450.000000	102.773483	-83.1767
1475.000000	102.773430	-83.5272
1500.000000	102.769775	-83.8374
1525.000000	102.767288	-84.0381
1550.000000	102.767090	-84.1966
1575.000000	102.768349	-84.2921
1600.000000	102.770523	-84.3374
1625.000000	102.778198	-84.3285
1650.000000	102.786957	-84.2785
1675.000000	102.803421	-84.2036
1700.000000	102.823761	-84.0974
1725.000000	102.848701	-83.9722
1750.000000	102.876740	-83.8326
1775.000000	102.905853	-83.6938
1800.000000	102.942184	-83.5578
1825.000000	102.976540	-83.3705
1850.000000	103.016586	-83.1967
1875.000000	103.060791	-83.0347
1900.000000	103.106888	-82.8550
1925.000000	103.156418	-82.6947
1950.000000	103.206039	-82.5280
1975.000000	103.260468	-82.3938
2000.000000	103.313553	-82.2587
2030.000000	103.381241	-82.1268
2060.000000	103.447678	-82.0159
2090.000000	103.514038	-81.9275
2120.000000	103.579803	-81.8742
2140.000000	103.623718	-81.8476
2180.000000	103.702751	-81.8381
2200.000000	103.740227	-81.8477
2240.000000	103.809593	-81.8923
2270.000000	103.853035	-81.9388
2300.000000	103.891533	-82.0003
2330.000000	103.922401	-82.0589
2360.000000	103.943764	-82.1160
2400.000000	103.963043	-82.1574
2430.000000	103.967232	-82.1428
2470.000000	103.965393	-82.0593
2500.000000	103.957245	-81.9376
2540.000000	103.943871	-81.6869
2580.000000	103.929283	-81.2985
2620.000000	103.922462	-80.8187
2650.000000	103.925003	-80.3902
2690.000000	103.943420	-79.7690
2720.000000	103.969872	-79.2837
2760.000000	104.022934	-78.6865
2800.000000	104.089981	-78.1741
2850.000000	104.184601	-77.7177
2900.000000	104.278610	-77.5126
2950.000000	104.346054	-77.5164
3000.000000	104.374588	-77.6350
3040.000000	104.370346	-77.7201
3070.000000	104.349304	-77.7498
3110.000000	104.302673	-77.7120
3150.000000	104.239861	-77.5536
3200.000000	104.148735	-77.1673
3250.000000	104.046860	-76.5669
3300.000000	103.947052	-75.7752
3350.000000	103.854492	-74.7822
3400.000000	103.768448	-73.6236
3450.000000	103.699638	-72.2925
3500.000000	103.650116	-70.8320
3550.000000	103.624184	-69.2555
3600.000000	103.625237	-67.6086
3650.000000	103.655594	-65.8867
3700.000000	103.717094	-64.1859
3750.000000	103.811073	-62.5348
3820.000000	103.989227	-60.3682
3870.000000	104.145805	-58.9757
3950.000000	104.436554	-57.0774
4000.000000	104.640259	-56.1323
4060.000000	104.897285	-55.2600
4120.000000	105.167145	-54.6682
4180.000000	105.446358	-54.4411
4250.000000	105.778030	-54.6993
4310.000000	106.049583	-55.4847
4370.000000	106.281219	-56.8665
4440.000000	106.459885	-59.1743
4500.000000	106.493187	-61.6283
4550.000000	106.421196	-63.8272
4620.000000	106.151718	-66.8223
4680.000000	105.777237	-69.0295
4750.000000	105.196625	-70.8818
4820.000000	104.508568	-71.7541
4870.000000	103.974106	-71.7332
4940.000000	103.191177	-70.7675
5000.000000	102.510971	-69.0322
5080.000000	101.639359	-65.4804
5150.000000	100.940979	-61.1766
5220.000000	100.344284	-55.8265
5300.000000	99.862411	-48.6272
5380.000000	99.658035	-40.8014
5450.000000	99.736961	-34.1213
5520.000000	100.000252	-28.4040
5600.000000	100.344093	-23.1791
5700.000000	100.749359	-17.3300
5800.000000	101.253578	-11.6527
5900.000000	101.933395	-6.8067
6000.000000	102.722649	-3.5530
6080.000000	103.345055	-2.2873
6150.000000	103.829956	-2.0432
6220.000000	104.223114	-2.4342
6300.000000	104.535812	-3.3212
6400.000000	104.723778	-4.5530
6500.000000	104.721832	-5.4001
6600.000000	104.603592	-5.4921
6700.000000	104.434059	-4.7576
6800.000000	104.267517	-3.2825
6900.000000	104.145958	-1.1893
7000.000000	104.091652	1.3200
7100.000000	104.120720	4.0791
7200.000000	104.244934	6.8675
7300.000000	104.465637	9.4201
7400.000000	104.770912	11.5568
7500.000000	105.142914	13.0886
7620.000000	105.651772	13.7789
7750.000000	106.195175	12.7327
7880.000000	106.582550	9.7211
8000.000000	106.654488	5.6970
8120.000000	106.381424	1.4684
8250.000000	105.748978	-2.0161
8380.000000	104.922478	-3.7281
8500.000000	104.112213	-3.7769
8620.000000	103.312866	-2.5865
8750.000000	102.503815	-0.1615
8850.000000	101.949265	2.3593
9000.000000	101.251358	6.9471
9120.000000	100.821732	11.0083
9250.000000	100.490334	15.5338
9380.000000	100.278137	20.0715
9500.000000	100.212860	24.1309
9620.000000	100.281326	27.8023
9750.000000	100.489502	30.9292
9880.000000	100.812965	32.7816
10000.000000	101.151367	32.9663
10150.000000	101.456032	30.5147
10300.000000	101.300598	25.6037
10440.000000	100.536865	21.1499
10600.000000	99.102974	19.6897
10750.000000	97.692307	23.1276
10900.000000	96.619232	30.2830
11060.000000	96.083252	39.9246
11200.000000	96.137688	48.1708
11380.000000	96.774490	56.6039
11500.000000	97.434128	60.1325
11720.000000	98.736061	61.6252
11800.000000	99.145828	60.6769
12060.000000	99.923958	54.3806
12200.000000	99.938614	50.5044
12410.000000	99.664062	46.0611
12500.000000	99.520393	44.6504
12650.000000	99.290588	42.7426
12800.000000	99.122322	41.0782
13150.000000	99.079269	35.9549
13200.000000	99.109215	34.8185
13400.000000	99.224503	28.5525
13600.000000	99.154022	19.2281
13800.000000	98.580406	7.6701
14000.000000	97.393562	-3.7286
14300.000000	94.956726	-16.2667
14500.000000	93.295555	-21.5293
14750.000000	91.465378	-25.8149
15000.000000	90.066216	-28.6233
15250.000000	89.181320	-31.8943
15500.000000	88.694519	-36.7768
15750.000000	88.490829	-43.8880
16000.000000	88.415298	-52.7819
16250.000000	88.541779	-62.4818
16500.000000	89.168045	-73.1401
16750.000000	90.475822	-87.7466
17000.000000	92.402077	-111.2098
17250.000000	93.715538	-150.0664
17500.000000	92.177528	164.6775
17750.000000	89.028542	129.7295
18000.000000	86.073578	101.9524
18250.000000	83.635521	75.1094
18500.000000	81.757095	45.5563
18750.000000	80.166550	10.7924
19000.000000	78.837700	-32.8680
19250.000000	77.048851	-90.2671
19500.000000	75.274734	-161.8934
19750.000000	72.321426	109.0656
