* Measurement data measured by REW V5.19
* Source: Frequency Response Averaged data
* Format: Averaged data produced from Nov 16 17:06:47, Nov 16 17:07:54
* Dated: 16-Nov-2021 17:08:28
* REW Settings:
*  C-weighting compensation: Off
*  Target level: 75.0 dB
* Note: Averaged data produced from Nov 16 17:06:47, Nov 16 17:07:54
* Measurement: EJ07M L
* Smoothing: 1/24 octave
* Frequency Step: 1/48 octave
* Start Frequency: 20.000 Hz
*
* Freq(Hz)	SPL(dB)
20.000000	102.051
20.299999	102.029
20.600000	102.009
20.900000	101.991
21.200001	101.975
21.400000	101.966
21.799999	101.949
22.000000	101.942
22.400000	101.929
22.700001	101.921
23.000000	101.912
23.299999	101.903
23.600000	101.893
24.000000	101.878
24.299999	101.865
24.700001	101.846
25.000000	101.829
25.400000	101.803
25.799999	101.775
26.200001	101.744
26.500000	101.720
26.900000	101.686
27.200001	101.660
27.600000	101.625
28.000000	101.591
28.500000	101.549
29.000000	101.508
29.500000	101.470
30.000000	101.435
30.400000	101.408
30.700001	101.388
31.100000	101.363
31.500000	101.338
32.000000	101.307
32.500000	101.276
33.000000	101.244
33.500000	101.211
34.000000	101.176
34.500000	101.141
35.000000	101.105
35.500000	101.068
36.000000	101.030
36.500000	100.992
37.000000	100.953
37.500000	100.913
38.200001	100.856
38.700001	100.814
39.500000	100.748
40.000000	100.707
40.599998	100.658
41.200001	100.610
41.799999	100.563
42.500000	100.509
43.099998	100.463
43.700001	100.417
44.400002	100.364
45.000000	100.318
45.500000	100.280
46.200001	100.226
46.799999	100.180
47.500000	100.126
48.200001	100.071
48.700001	100.032
49.400002	99.977
50.000000	99.930
50.799999	99.867
51.500000	99.812
52.200001	99.757
53.000000	99.694
53.799999	99.631
54.500000	99.576
55.200001	99.521
56.000000	99.457
57.000000	99.377
58.000000	99.297
59.000000	99.216
60.000000	99.136
60.799999	99.073
61.500000	99.017
62.200001	98.962
63.000000	98.900
64.000000	98.822
65.000000	98.745
66.000000	98.667
67.000000	98.590
68.000000	98.512
69.000000	98.433
70.000000	98.355
71.000000	98.277
72.000000	98.200
73.000000	98.123
74.000000	98.046
75.000000	97.970
76.199997	97.879
77.500000	97.781
78.800003	97.684
80.000000	97.594
81.199997	97.504
82.500000	97.408
83.800003	97.312
85.000000	97.224
86.199997	97.136
87.500000	97.042
88.500000	96.970
90.000000	96.862
91.199997	96.776
92.500000	96.684
93.800003	96.592
95.000000	96.509
96.199997	96.426
97.500000	96.337
98.800003	96.248
100.000000	96.167
101.500000	96.067
103.000000	95.968
104.400002	95.876
106.000000	95.772
107.500000	95.676
109.000000	95.581
110.599998	95.480
112.000000	95.393
113.800003	95.282
115.000000	95.209
117.199997	95.076
118.000000	95.029
120.599998	94.876
122.000000	94.795
124.099998	94.675
125.000000	94.625
126.500000	94.541
128.000000	94.458
131.500000	94.269
132.000000	94.242
134.000000	94.136
136.000000	94.032
138.000000	93.929
140.000000	93.829
143.000000	93.683
145.000000	93.588
147.500000	93.474
150.000000	93.365
152.500000	93.262
155.000000	93.163
157.500000	93.070
160.000000	92.982
162.500000	92.898
165.000000	92.816
167.500000	92.736
170.000000	92.657
172.500000	92.579
175.000000	92.501
177.500000	92.425
180.000000	92.351
182.500000	92.280
185.000000	92.213
187.500000	92.150
190.000000	92.090
192.500000	92.033
195.000000	91.979
197.500000	91.927
200.000000	91.877
203.000000	91.818
206.000000	91.761
209.000000	91.704
212.000000	91.650
214.000000	91.614
218.000000	91.545
220.000000	91.512
224.000000	91.448
227.000000	91.403
230.000000	91.361
233.000000	91.321
236.000000	91.283
240.000000	91.238
243.000000	91.206
247.000000	91.169
250.000000	91.145
254.000000	91.116
258.000000	91.093
262.000000	91.074
265.000000	91.062
269.000000	91.050
272.000000	91.042
276.000000	91.034
280.000000	91.028
285.000000	91.022
290.000000	91.017
295.000000	91.013
300.000000	91.009
304.000000	91.007
307.000000	91.005
311.000000	91.003
315.000000	91.001
320.000000	90.998
325.000000	90.996
330.000000	90.995
335.000000	90.994
340.000000	90.994
345.000000	90.994
350.000000	90.994
355.000000	90.995
360.000000	90.996
365.000000	90.997
370.000000	90.997
375.000000	90.998
382.000000	90.998
387.000000	90.999
395.000000	90.999
400.000000	91.000
406.000000	91.001
412.000000	91.003
418.000000	91.006
425.000000	91.009
431.000000	91.012
437.000000	91.016
444.000000	91.020
450.000000	91.024
455.000000	91.028
462.000000	91.032
468.000000	91.036
475.000000	91.041
482.000000	91.046
487.000000	91.050
494.000000	91.054
500.000000	91.058
508.000000	91.063
515.000000	91.068
522.000000	91.072
530.000000	91.076
538.000000	91.081
545.000000	91.085
552.000000	91.089
560.000000	91.093
570.000000	91.099
580.000000	91.105
590.000000	91.113
600.000000	91.121
608.000000	91.129
615.000000	91.137
622.000000	91.146
630.000000	91.157
640.000000	91.173
650.000000	91.191
660.000000	91.210
670.000000	91.229
680.000000	91.249
690.000000	91.269
700.000000	91.289
710.000000	91.309
720.000000	91.330
730.000000	91.352
740.000000	91.375
750.000000	91.400
762.000000	91.432
775.000000	91.470
788.000000	91.512
800.000000	91.554
812.000000	91.599
825.000000	91.652
838.000000	91.709
850.000000	91.765
862.000000	91.825
875.000000	91.893
885.000000	91.948
900.000000	92.034
912.000000	92.107
925.000000	92.189
938.000000	92.274
950.000000	92.355
962.000000	92.438
975.000000	92.529
988.000000	92.622
1000.000000	92.709
1015.000000	92.818
1030.000000	92.928
1044.000000	93.030
1060.000000	93.147
1075.000000	93.255
1090.000000	93.361
1106.000000	93.473
1120.000000	93.569
1138.000000	93.689
1150.000000	93.767
1172.000000	93.905
1180.000000	93.954
1206.000000	94.109
1220.000000	94.189
1241.000000	94.307
1250.000000	94.356
1265.000000	94.437
1280.000000	94.516
1315.000000	94.697
1320.000000	94.723
1340.000000	94.825
1360.000000	94.927
1380.000000	95.031
1400.000000	95.136
1430.000000	95.297
1450.000000	95.406
1475.000000	95.543
1500.000000	95.677
1525.000000	95.805
1550.000000	95.922
1575.000000	96.024
1600.000000	96.110
1625.000000	96.180
1650.000000	96.236
1675.000000	96.286
1700.000000	96.335
1725.000000	96.390
1750.000000	96.456
1775.000000	96.535
1800.000000	96.628
1825.000000	96.734
1850.000000	96.850
1875.000000	96.975
1900.000000	97.106
1925.000000	97.240
1950.000000	97.375
1975.000000	97.509
2000.000000	97.643
2030.000000	97.799
2060.000000	97.951
2090.000000	98.099
2120.000000	98.241
2140.000000	98.333
2180.000000	98.509
2200.000000	98.592
2240.000000	98.751
2270.000000	98.861
2300.000000	98.964
2330.000000	99.058
2360.000000	99.144
2400.000000	99.244
2430.000000	99.308
2470.000000	99.380
2500.000000	99.423
2540.000000	99.466
2580.000000	99.496
2620.000000	99.512
2650.000000	99.516
2690.000000	99.512
2720.000000	99.502
2760.000000	99.481
2800.000000	99.450
2850.000000	99.399
2900.000000	99.335
2950.000000	99.260
3000.000000	99.177
3040.000000	99.105
3070.000000	99.049
3110.000000	98.973
3150.000000	98.897
3200.000000	98.801
3250.000000	98.707
3300.000000	98.614
3350.000000	98.525
3400.000000	98.438
3450.000000	98.355
3500.000000	98.277
3550.000000	98.203
3600.000000	98.135
3650.000000	98.075
3700.000000	98.022
3750.000000	97.979
3820.000000	97.934
3870.000000	97.914
3950.000000	97.902
4000.000000	97.906
4060.000000	97.921
4120.000000	97.947
4180.000000	97.982
4250.000000	98.032
4310.000000	98.079
4370.000000	98.128
4440.000000	98.182
4500.000000	98.223
4550.000000	98.250
4620.000000	98.273
4680.000000	98.275
4750.000000	98.254
4820.000000	98.203
4870.000000	98.148
4940.000000	98.043
5000.000000	97.925
5080.000000	97.730
5150.000000	97.523
5220.000000	97.284
5300.000000	96.975
5380.000000	96.630
5450.000000	96.303
5520.000000	95.958
5600.000000	95.549
5700.000000	95.027
5800.000000	94.514
5900.000000	94.030
6000.000000	93.591
6080.000000	93.284
6150.000000	93.052
6220.000000	92.857
6300.000000	92.684
6400.000000	92.546
6500.000000	92.497
6600.000000	92.539
6700.000000	92.672
6800.000000	92.892
6900.000000	93.194
7000.000000	93.567
7100.000000	93.997
7200.000000	94.466
7300.000000	94.954
7400.000000	95.440
7500.000000	95.903
7620.000000	96.404
7750.000000	96.848
7880.000000	97.164
8000.000000	97.326
8120.000000	97.358
8250.000000	97.243
8380.000000	96.981
8500.000000	96.619
8620.000000	96.158
8750.000000	95.567
8850.000000	95.065
9000.000000	94.266
9120.000000	93.615
9250.000000	92.931
9380.000000	92.301
9500.000000	91.790
9620.000000	91.366
9750.000000	91.019
9880.000000	90.791
10000.000000	90.681
10150.000000	90.661
10300.000000	90.742
10440.000000	90.878
10600.000000	91.069
10750.000000	91.255
10900.000000	91.427
11060.000000	91.579
11200.000000	91.679
11380.000000	91.759
11500.000000	91.784
11720.000000	91.781
11800.000000	91.768
12060.000000	91.699
12200.000000	91.657
12410.000000	91.600
12500.000000	91.579
12650.000000	91.553
12800.000000	91.537
13150.000000	91.533
13200.000000	91.535
13400.000000	91.552
13600.000000	91.579
13800.000000	91.614
14000.000000	91.655
14300.000000	91.712
14500.000000	91.731
14750.000000	91.708
15000.000000	91.602
15250.000000	91.388
15500.000000	91.046
15750.000000	90.572
16000.000000	89.970
16250.000000	89.258
16500.000000	88.463
16750.000000	87.621
17000.000000	86.779
17250.000000	85.986
17500.000000	85.292
17750.000000	84.736
18000.000000	84.335
18250.000000	84.082
18500.000000	83.948
18750.000000	83.895
19000.000000	83.885
19250.000000	83.893
19500.000000	83.903
19750.000000	83.909
