* Measurement data measured by REW V5.20.3
* Source: Trace Arithmetic result Merge B to A
* Format: Trace Arithmetic result Merge B to A
* Dated: 31-Mar-2022 23:11:16
* REW Settings:
*  C-weighting compensation: Off
*  Target level: 75.0 dB
* Note: Trace Arithmetic B to A at 1,000 Hz A = X2HR L VSG to Crin B = X2HR L VSG B was scaled by 111.3 dB
* Measurement: X2HR L VSG to Crin
* Smoothing: 1/24 octave
* Frequency Step: 1/48 octave
* Start Frequency: 20.000 Hz
*
* Freq(Hz)	SPL(dB)
20.000000	73.238
20.299999	73.371
20.600000	73.500
20.900000	73.627
21.200001	73.750
21.400000	73.830
21.799999	73.985
22.000000	74.061
22.400000	74.208
22.700001	74.315
23.000000	74.420
23.299999	74.522
23.600000	74.622
24.000000	74.752
24.299999	74.848
24.700001	74.973
25.000000	75.065
25.400000	75.186
25.799999	75.305
26.200001	75.422
26.500000	75.509
26.900000	75.623
27.200001	75.707
27.600000	75.818
28.000000	75.927
28.500000	76.060
29.000000	76.190
29.500000	76.316
30.000000	76.438
30.400000	76.534
30.700001	76.604
31.100000	76.694
31.500000	76.783
32.000000	76.889
32.500000	76.992
33.000000	77.091
33.500000	77.187
34.000000	77.280
34.500000	77.371
35.000000	77.460
35.500000	77.546
36.000000	77.631
36.500000	77.714
37.000000	77.796
37.500000	77.876
38.200001	77.984
38.700001	78.060
39.500000	78.177
40.000000	78.247
40.599998	78.329
41.200001	78.409
41.799999	78.485
42.500000	78.571
43.099998	78.642
43.700001	78.710
44.400002	78.787
45.000000	78.850
45.500000	78.900
46.200001	78.967
46.799999	79.022
47.500000	79.083
48.200001	79.140
48.700001	79.178
49.400002	79.229
50.000000	79.269
50.799999	79.318
51.500000	79.357
52.200001	79.391
53.000000	79.425
53.799999	79.455
54.500000	79.477
55.200001	79.497
56.000000	79.517
57.000000	79.539
58.000000	79.558
59.000000	79.576
60.000000	79.593
60.799999	79.605
61.500000	79.614
62.200001	79.623
63.000000	79.631
64.000000	79.639
65.000000	79.643
66.000000	79.643
67.000000	79.640
68.000000	79.634
69.000000	79.626
70.000000	79.617
71.000000	79.608
72.000000	79.598
73.000000	79.590
74.000000	79.584
75.000000	79.578
76.199997	79.573
77.500000	79.567
78.800003	79.559
80.000000	79.548
81.199997	79.532
82.500000	79.510
83.800003	79.484
85.000000	79.458
86.199997	79.430
87.500000	79.400
88.500000	79.377
90.000000	79.345
91.199997	79.320
92.500000	79.295
93.800003	79.271
95.000000	79.249
96.199997	79.228
97.500000	79.206
98.800003	79.185
100.000000	79.165
101.500000	79.141
103.000000	79.117
104.400002	79.094
106.000000	79.067
107.500000	79.039
109.000000	79.009
110.599998	78.974
112.000000	78.941
113.800003	78.894
115.000000	78.860
117.199997	78.794
118.000000	78.769
120.599998	78.685
122.000000	78.637
124.099998	78.565
125.000000	78.533
126.500000	78.480
128.000000	78.425
131.500000	78.291
132.000000	78.272
134.000000	78.193
136.000000	78.113
138.000000	78.032
140.000000	77.952
143.000000	77.832
145.000000	77.753
147.500000	77.655
150.000000	77.557
152.500000	77.460
155.000000	77.363
157.500000	77.265
160.000000	77.167
162.500000	77.070
165.000000	76.972
167.500000	76.875
170.000000	76.780
172.500000	76.688
175.000000	76.598
177.500000	76.513
180.000000	76.433
182.500000	76.359
185.000000	76.294
187.500000	76.236
190.000000	76.187
192.500000	76.146
195.000000	76.112
197.500000	76.083
200.000000	76.057
203.000000	76.027
206.000000	75.997
209.000000	75.966
212.000000	75.933
214.000000	75.911
218.000000	75.868
220.000000	75.849
224.000000	75.818
227.000000	75.805
230.000000	75.804
233.000000	75.817
236.000000	75.846
240.000000	75.913
243.000000	75.986
247.000000	76.111
250.000000	76.220
254.000000	76.380
258.000000	76.543
262.000000	76.694
265.000000	76.792
269.000000	76.895
272.000000	76.948
276.000000	76.987
280.000000	76.991
285.000000	76.954
290.000000	76.881
295.000000	76.787
300.000000	76.680
304.000000	76.593
307.000000	76.529
311.000000	76.446
315.000000	76.367
320.000000	76.275
325.000000	76.193
330.000000	76.119
335.000000	76.055
340.000000	75.999
345.000000	75.951
350.000000	75.910
355.000000	75.876
360.000000	75.847
365.000000	75.822
370.000000	75.799
375.000000	75.776
382.000000	75.746
387.000000	75.724
395.000000	75.690
400.000000	75.670
406.000000	75.648
412.000000	75.628
418.000000	75.611
425.000000	75.595
431.000000	75.585
437.000000	75.578
444.000000	75.573
450.000000	75.571
455.000000	75.571
462.000000	75.572
468.000000	75.573
475.000000	75.576
482.000000	75.579
487.000000	75.582
494.000000	75.588
500.000000	75.594
508.000000	75.606
515.000000	75.617
522.000000	75.631
530.000000	75.648
538.000000	75.666
545.000000	75.680
552.000000	75.694
560.000000	75.709
570.000000	75.726
580.000000	75.742
590.000000	75.759
600.000000	75.778
608.000000	75.796
615.000000	75.813
622.000000	75.832
630.000000	75.854
640.000000	75.884
650.000000	75.915
660.000000	75.946
670.000000	75.976
680.000000	76.006
690.000000	76.035
700.000000	76.065
710.000000	76.095
720.000000	76.124
730.000000	76.154
740.000000	76.184
750.000000	76.212
762.000000	76.244
775.000000	76.277
788.000000	76.309
800.000000	76.335
812.000000	76.357
825.000000	76.372
838.000000	76.370
850.000000	76.348
862.000000	76.302
875.000000	76.225
885.000000	76.147
900.000000	76.010
912.000000	75.894
925.000000	75.776
938.000000	75.679
950.000000	75.614
962.000000	75.573
975.000000	75.552
988.000000	75.549
1000.000000	75.558
1015.000000	75.584
1030.000000	75.636
1044.000000	75.713
1060.000000	75.836
1075.000000	75.974
1090.000000	76.121
1106.000000	76.270
1120.000000	76.376
1138.000000	76.467
1150.000000	76.499
1172.000000	76.516
1180.000000	76.516
1206.000000	76.548
1220.000000	76.620
1241.000000	76.832
1250.000000	76.953
1265.000000	77.171
1280.000000	77.391
1315.000000	77.850
1320.000000	77.907
1340.000000	78.112
1360.000000	78.276
1380.000000	78.412
1400.000000	78.547
1430.000000	78.804
1450.000000	79.027
1475.000000	79.353
1500.000000	79.728
1525.000000	80.186
1550.000000	80.754
1575.000000	81.360
1600.000000	81.857
1625.000000	82.124
1650.000000	82.156
1675.000000	82.059
1700.000000	81.957
1725.000000	81.889
1750.000000	81.801
1775.000000	81.636
1800.000000	81.402
1825.000000	81.175
1850.000000	81.056
1875.000000	81.082
1900.000000	81.202
1925.000000	81.338
1950.000000	81.449
1975.000000	81.537
2000.000000	81.617
2030.000000	81.715
2060.000000	81.812
2090.000000	81.888
2120.000000	81.917
2140.000000	81.901
2180.000000	81.784
2200.000000	81.694
2240.000000	81.489
2270.000000	81.354
2300.000000	81.277
2330.000000	81.282
2360.000000	81.362
2400.000000	81.517
2430.000000	81.623
2470.000000	81.731
2500.000000	81.795
2540.000000	81.852
2580.000000	81.851
2620.000000	81.776
2650.000000	81.683
2690.000000	81.535
2720.000000	81.418
2760.000000	81.262
2800.000000	81.130
2850.000000	81.121
2900.000000	81.447
2950.000000	82.067
3000.000000	82.729
3040.000000	83.131
3070.000000	83.329
3110.000000	83.469
3150.000000	83.521
3200.000000	83.563
3250.000000	83.655
3300.000000	83.803
3350.000000	83.967
3400.000000	84.107
3450.000000	84.200
3500.000000	84.255
3550.000000	84.302
3600.000000	84.386
3650.000000	84.548
3700.000000	84.808
3750.000000	85.145
3820.000000	85.637
3870.000000	85.938
3950.000000	86.296
4000.000000	86.453
4060.000000	86.582
4120.000000	86.657
4180.000000	86.700
4250.000000	86.750
4310.000000	86.817
4370.000000	86.913
4440.000000	87.062
4500.000000	87.207
4550.000000	87.327
4620.000000	87.458
4680.000000	87.506
4750.000000	87.452
4820.000000	87.247
4870.000000	86.998
4940.000000	86.503
5000.000000	85.953
5080.000000	85.077
5150.000000	84.233
5220.000000	83.389
5300.000000	82.527
5380.000000	81.868
5450.000000	81.482
5520.000000	81.256
5600.000000	81.164
5700.000000	81.279
5800.000000	81.609
5900.000000	82.060
6000.000000	82.553
6080.000000	82.947
6150.000000	83.282
6220.000000	83.598
6300.000000	83.926
6400.000000	84.248
6500.000000	84.405
6600.000000	84.325
6700.000000	83.971
6800.000000	83.365
6900.000000	82.583
7000.000000	81.731
7100.000000	80.929
7200.000000	80.289
7300.000000	79.911
7400.000000	79.858
7500.000000	80.132
7620.000000	80.773
7750.000000	81.597
7880.000000	82.318
8000.000000	82.794
8120.000000	83.060
8250.000000	83.095
8380.000000	82.859
8500.000000	82.418
8620.000000	81.797
8750.000000	80.961
8850.000000	80.235
9000.000000	79.143
9120.000000	78.480
9250.000000	78.214
9380.000000	78.458
9500.000000	78.998
9620.000000	79.669
9750.000000	80.386
9880.000000	80.964
10000.000000	81.295
10150.000000	81.398
10300.000000	81.170
10440.000000	80.695
10600.000000	79.869
10750.000000	78.818
10900.000000	77.493
11060.000000	75.803
11200.000000	74.159
11380.000000	71.987
11500.000000	70.627
11720.000000	68.664
11800.000000	68.207
12060.000000	67.831
12200.000000	68.171
12410.000000	68.908
12500.000000	69.193
12650.000000	69.529
12800.000000	69.650
13150.000000	69.204
13200.000000	69.093
13400.000000	68.658
13600.000000	68.343
13800.000000	68.178
14000.000000	68.097
14300.000000	67.970
14500.000000	67.834
14750.000000	67.635
15000.000000	67.504
15250.000000	67.656
15500.000000	68.453
15750.000000	70.021
16000.000000	71.829
16250.000000	73.232
16500.000000	73.951
16750.000000	73.994
17000.000000	73.466
17250.000000	72.446
17500.000000	70.983
17750.000000	69.141
18000.000000	67.035
18250.000000	64.829
18500.000000	62.718
18750.000000	60.884
19000.000000	59.476
19250.000000	58.609
19500.000000	58.277
19750.000000	58.272
