* Measurement data measured by REW V5.20
* Source: USB-C to 3.5mm Headphone Jack Adapter, USB-C to 3.5mm Headphone Jack Adapter, 0, volume: 0.138
* Format: 256k Log Swept Sine, 1 sweep at -12.0 dBFS with no timing reference
* Dated: Jun 11, 2022 11:52:50 AM
* REW Settings:
*  C-weighting compensation: Off
*  Target level: 75.0 dB
* Note: 
* Measurement: L
* Smoothing: None
* Frequency Step: 1/48 octave
* Start Frequency: 20.300 Hz
*
* Freq(Hz)	SPL(dB)	Phase(degrees)
20.299999	104.308014	30.7178
20.600000	104.334564	30.3358
20.900000	104.356674	29.9984
21.200001	104.379547	29.6571
21.400000	104.395805	29.4213
21.799999	104.429245	28.9317
22.000000	104.445496	28.6831
22.400000	104.475662	28.1961
22.700001	104.495949	27.8546
23.000000	104.514992	27.5381
23.299999	104.533638	27.2424
23.600000	104.552490	26.9576
24.000000	104.577751	26.5772
24.299999	104.596184	26.2846
24.700001	104.619324	25.8874
25.000000	104.635849	25.5917
25.400000	104.657768	25.2105
25.799999	104.680756	24.8474
26.200001	104.704712	24.4969
26.500000	104.722382	24.2376
26.900000	104.743820	23.8946
27.200001	104.757545	23.6410
27.600000	104.772881	23.3129
28.000000	104.786240	23.0002
28.500000	104.803329	22.6287
29.000000	104.823059	22.2662
29.500000	104.844536	21.9028
30.000000	104.865021	21.5418
30.400000	104.879662	21.2625
30.700001	104.889839	21.0615
31.100000	104.903107	20.8038
31.500000	104.916710	20.5516
32.000000	104.934113	20.2345
32.500000	104.950676	19.9141
33.000000	104.965714	19.6022
33.500000	104.980072	19.3076
34.000000	104.994843	19.0254
34.500000	105.009598	18.7448
35.000000	105.023010	18.4638
35.500000	105.034836	18.1907
36.000000	105.046547	17.9316
36.500000	105.059372	17.6812
37.000000	105.072754	17.4309
37.500000	105.085106	17.1793
38.200001	105.099823	16.8370
38.700001	105.109795	16.6037
39.500000	105.126785	16.2384
40.000000	105.137352	16.0114
40.599998	105.148987	15.7461
41.200001	105.159607	15.4933
41.799999	105.169853	15.2507
42.500000	105.181885	14.9700
43.099998	105.191872	14.7250
43.700001	105.200668	14.4812
44.400002	105.209961	14.2153
45.000000	105.218750	14.0045
45.500000	105.226624	13.8303
46.200001	105.236290	13.5811
46.799999	105.243103	13.3718
47.500000	105.252365	13.1358
48.200001	105.262833	12.8950
48.700001	105.268875	12.7251
49.400002	105.275589	12.5047
50.000000	105.281601	12.3215
50.799999	105.289406	12.0687
51.500000	105.296631	11.8545
52.200001	105.304703	11.6441
53.000000	105.309402	11.4119
53.799999	105.313576	11.2085
54.500000	105.321289	11.0082
55.200001	105.325653	10.8081
56.000000	105.332962	10.6557
57.000000	105.346039	10.3673
58.000000	105.337257	10.0603
59.000000	105.381004	9.7895
60.000000	105.405365	9.2699
60.799999	105.374451	9.2128
61.500000	105.369759	9.3143
62.200001	105.377968	9.1945
63.000000	105.372322	8.9276
64.000000	105.378502	8.7168
65.000000	105.389847	8.5030
66.000000	105.387993	8.3302
67.000000	105.391090	8.1149
68.000000	105.395493	7.9087
69.000000	105.401161	7.7204
70.000000	105.401291	7.5281
71.000000	105.403648	7.3441
72.000000	105.407906	7.1604
73.000000	105.409447	6.9836
74.000000	105.409821	6.8134
75.000000	105.411728	6.6363
76.199997	105.413528	6.4344
77.500000	105.415871	6.2263
78.800003	105.415497	6.0145
80.000000	105.416748	5.8288
81.199997	105.418533	5.6379
82.500000	105.417572	5.4459
83.800003	105.417137	5.2600
85.000000	105.417770	5.0917
86.199997	105.417465	4.9199
87.500000	105.416374	4.7400
88.500000	105.414963	4.6080
90.000000	105.412720	4.4126
91.199997	105.411453	4.2663
92.500000	105.410255	4.0972
93.800003	105.407326	3.9388
95.000000	105.406693	3.7903
96.199997	105.405670	3.6528
97.500000	105.402084	3.4993
98.800003	105.398697	3.3502
100.000000	105.396545	3.2071
101.500000	105.393265	3.0577
103.000000	105.388695	2.8931
104.400002	105.385918	2.7461
106.000000	105.379959	2.5805
107.500000	105.375580	2.4338
109.000000	105.372452	2.2915
110.599998	105.365051	2.1307
112.000000	105.362968	1.9982
113.800003	105.355156	1.8518
115.000000	105.349037	1.7023
117.199997	105.342072	1.5303
118.000000	105.330070	1.4904
120.599998	105.325226	1.0231
122.000000	105.331581	1.1796
124.099998	105.313332	0.9686
125.000000	105.314049	0.8819
126.500000	105.305656	0.7899
128.000000	105.298218	0.6531
131.500000	105.282417	0.4035
132.000000	105.280731	0.3684
134.000000	105.271118	0.2263
136.000000	105.261322	0.0863
138.000000	105.251495	-0.0369
140.000000	105.239685	-0.1697
143.000000	105.225586	-0.3663
145.000000	105.215302	-0.4846
147.500000	105.201721	-0.6450
150.000000	105.187889	-0.7849
152.500000	105.173218	-0.9272
155.000000	105.158684	-1.0704
157.500000	105.143387	-1.1961
160.000000	105.130524	-1.3351
162.500000	105.114334	-1.4554
165.000000	105.099747	-1.5767
167.500000	105.083961	-1.6910
170.000000	105.066772	-1.8055
172.500000	105.053185	-1.9116
175.000000	105.035355	-2.0277
177.500000	105.018799	-2.1275
180.000000	105.004868	-2.2783
182.500000	104.987442	-2.3214
185.000000	104.971359	-2.4226
187.500000	104.954681	-2.5127
190.000000	104.936920	-2.5988
192.500000	104.919151	-2.6843
195.000000	104.903961	-2.7607
197.500000	104.885033	-2.8429
200.000000	104.867126	-2.9186
203.000000	104.846062	-3.0088
206.000000	104.824982	-3.1083
209.000000	104.804062	-3.1833
212.000000	104.781670	-3.2559
214.000000	104.767166	-3.3112
218.000000	104.738548	-3.4057
220.000000	104.724327	-3.4580
224.000000	104.693649	-3.5417
227.000000	104.672127	-3.5963
230.000000	104.649368	-3.6599
233.000000	104.626076	-3.7112
236.000000	104.602249	-3.7480
240.000000	104.597847	-3.7229
243.000000	104.552017	-3.8806
247.000000	104.519371	-3.9216
250.000000	104.496033	-3.9578
254.000000	104.466576	-3.9996
258.000000	104.434448	-4.0451
262.000000	104.403206	-4.0747
265.000000	104.380363	-4.0993
269.000000	104.347794	-4.1238
272.000000	104.324829	-4.1349
276.000000	104.291672	-4.1532
280.000000	104.261932	-4.1748
285.000000	104.220749	-4.1846
290.000000	104.180199	-4.1906
295.000000	104.140427	-4.1795
300.000000	104.102600	-4.0388
304.000000	104.069092	-4.1604
307.000000	104.043762	-4.1514
311.000000	104.010941	-4.1263
315.000000	103.978424	-4.0986
320.000000	103.936440	-4.0597
325.000000	103.896820	-4.0218
330.000000	103.854637	-3.9750
335.000000	103.814575	-3.9240
340.000000	103.773224	-3.8612
345.000000	103.730453	-3.7897
350.000000	103.689522	-3.7115
355.000000	103.648293	-3.6322
360.000000	103.608589	-3.5728
365.000000	103.566032	-3.4297
370.000000	103.525024	-3.3099
375.000000	103.483734	-3.1771
382.000000	103.429100	-2.9713
387.000000	103.391304	-2.7931
395.000000	103.344330	-2.4932
400.000000	103.322762	-2.3275
406.000000	103.300102	-2.1991
412.000000	103.273468	-2.1356
418.000000	103.235069	-2.1059
425.000000	103.184433	-2.0255
431.000000	103.136505	-1.9306
437.000000	103.088074	-1.8153
444.000000	103.031448	-1.6475
450.000000	102.982437	-1.4906
455.000000	102.943634	-1.3428
462.000000	102.888535	-1.1379
468.000000	102.841522	-0.9427
475.000000	102.788887	-0.7193
482.000000	102.734917	-0.4926
487.000000	102.698135	-0.3046
494.000000	102.645462	-0.0474
500.000000	102.602234	0.1670
508.000000	102.544098	0.4797
515.000000	102.495316	0.7541
522.000000	102.445480	1.0378
530.000000	102.389030	1.3576
538.000000	102.333549	1.6903
545.000000	102.283470	1.9915
552.000000	102.236382	2.2873
560.000000	102.181381	2.6505
570.000000	102.114006	3.0951
580.000000	102.048714	3.5967
590.000000	101.979111	4.0500
600.000000	101.912811	4.5505
608.000000	101.860573	4.9473
615.000000	101.812904	5.2958
622.000000	101.765213	5.6735
630.000000	101.713303	6.1075
640.000000	101.647697	6.6637
650.000000	101.580925	7.2431
660.000000	101.519569	7.7797
670.000000	101.449760	8.4774
680.000000	101.385201	9.1302
690.000000	101.324219	9.8235
700.000000	101.263504	10.5271
710.000000	101.206017	11.2700
720.000000	101.147980	12.0076
730.000000	101.098152	12.8230
740.000000	101.052002	13.6339
750.000000	101.009560	14.4720
762.000000	100.962967	15.4972
775.000000	100.922234	16.6519
788.000000	100.890244	17.8000
800.000000	100.866463	18.8839
812.000000	100.850883	19.9885
825.000000	100.842201	21.1836
838.000000	100.842438	22.3627
850.000000	100.848969	23.4833
862.000000	100.862961	24.5856
875.000000	100.885414	25.7879
885.000000	100.908188	26.6919
900.000000	100.937614	28.1387
912.000000	100.991974	29.1307
925.000000	101.044495	30.2764
938.000000	101.105537	31.4146
950.000000	101.167709	32.4412
962.000000	101.238602	33.4537
975.000000	101.318939	34.5144
988.000000	101.408585	35.5550
1000.000000	101.495140	36.4944
1015.000000	101.611191	37.6065
1030.000000	101.738892	38.6713
1044.000000	101.864838	39.6068
1060.000000	102.014183	40.6429
1075.000000	102.160393	41.5378
1090.000000	102.314842	42.3583
1106.000000	102.481201	43.1861
1120.000000	102.631882	43.8304
1138.000000	102.830383	44.5902
1150.000000	102.963776	45.0497
1172.000000	103.211426	45.7662
1180.000000	103.301819	46.0062
1206.000000	103.597946	46.6344
1220.000000	103.760620	46.9125
1241.000000	104.001831	47.2220
1250.000000	104.104446	47.3304
1265.000000	104.276703	47.4368
1280.000000	104.447212	47.5025
1315.000000	104.841339	47.4547
1320.000000	104.901527	47.4505
1340.000000	105.119278	47.2578
1360.000000	105.339737	46.9934
1380.000000	105.560379	46.6751
1400.000000	105.775887	46.2071
1430.000000	106.098030	45.3541
1450.000000	106.310081	44.6556
1475.000000	106.569626	43.6295
1500.000000	106.821678	42.3931
1525.000000	107.063049	40.9758
1550.000000	107.288681	39.3384
1575.000000	107.495186	37.4786
1600.000000	107.675018	35.4002
1625.000000	107.822990	33.1202
1650.000000	107.934158	30.6576
1675.000000	108.001564	28.0331
1700.000000	108.020943	25.3061
1725.000000	107.989517	22.5186
1750.000000	107.904411	19.7300
1775.000000	107.768059	16.9931
1800.000000	107.585197	14.3707
1825.000000	107.353462	11.9227
1850.000000	107.086632	9.6733
1875.000000	106.788971	7.6547
1900.000000	106.468498	5.8889
1925.000000	106.129715	4.3753
1950.000000	105.782089	3.1066
1975.000000	105.427887	2.0789
2000.000000	105.074623	1.2946
2030.000000	104.655289	0.6124
2060.000000	104.244873	0.2010
2090.000000	103.847145	0.0608
2120.000000	103.467926	0.1171
2140.000000	103.225357	0.2663
2180.000000	102.764648	0.7765
2200.000000	102.550514	1.1283
2240.000000	102.147591	2.0023
2270.000000	101.871193	2.7664
2300.000000	101.618347	3.6178
2330.000000	101.387756	4.5516
2360.000000	101.179947	5.5278
2400.000000	100.936264	6.8960
2430.000000	100.781540	7.9687
2470.000000	100.608833	9.4128
2500.000000	100.508553	10.5011
2540.000000	100.408485	11.9462
2580.000000	100.346176	13.3632
2620.000000	100.329117	14.7432
2650.000000	100.340805	15.7098
2690.000000	100.392677	16.9412
2720.000000	100.457840	17.8020
2760.000000	100.579826	18.8402
2800.000000	100.741951	19.7085
2850.000000	100.998184	20.5487
2900.000000	101.312759	21.0424
2950.000000	101.678902	21.1505
3000.000000	102.087860	20.7931
3040.000000	102.439590	20.1027
3070.000000	102.710876	19.3665
3110.000000	103.079414	18.0378
3150.000000	103.443665	16.3299
3200.000000	103.873878	13.6549
3250.000000	104.259369	10.4531
3300.000000	104.577629	6.7834
3350.000000	104.817787	2.8004
3400.000000	104.966248	-1.3727
3450.000000	105.026215	-5.5923
3500.000000	104.994125	-9.6837
3550.000000	104.878624	-13.4996
3600.000000	104.693008	-16.8493
3650.000000	104.459846	-19.6004
3700.000000	104.204399	-21.7119
3750.000000	103.954247	-23.1778
3820.000000	103.646805	-24.2505
3870.000000	103.476509	-24.4477
3950.000000	103.313919	-23.9804
4000.000000	103.283669	-23.3117
4060.000000	103.331009	-22.3367
4120.000000	103.461197	-21.1864
4180.000000	103.680222	-20.0162
4250.000000	104.036079	-18.7917
4310.000000	104.423286	-17.9940
4370.000000	104.867722	-17.5737
4440.000000	105.442619	-17.6394
4500.000000	105.960999	-18.2695
4550.000000	106.393356	-19.2011
4620.000000	106.980042	-21.1679
4680.000000	107.446144	-23.4391
4750.000000	107.916847	-26.7655
4820.000000	108.274857	-30.7196
4870.000000	108.441193	-33.8229
4940.000000	108.524857	-38.3518
5000.000000	108.449921	-42.1321
5080.000000	108.158684	-46.5876
5150.000000	107.760948	-49.6593
5220.000000	107.280357	-51.8082
5300.000000	106.681900	-53.1069
5380.000000	106.079964	-53.2856
5450.000000	105.576385	-52.6403
5520.000000	105.109528	-51.3582
5600.000000	104.635109	-49.2742
5700.000000	104.137192	-45.9396
5800.000000	103.748093	-42.0116
5900.000000	103.471443	-37.7160
6000.000000	103.304733	-33.2323
6080.000000	103.234253	-29.6464
6150.000000	103.217239	-26.5520
6220.000000	103.229004	-23.5408
6300.000000	103.261642	-20.1612
6400.000000	103.327393	-15.9963
6500.000000	103.408783	-11.6677
6600.000000	103.545036	-6.9967
6700.000000	103.782852	-2.0576
6800.000000	104.162689	2.9230
6900.000000	104.704575	7.4922
7000.000000	105.383698	11.1331
7100.000000	106.113617	13.5272
7200.000000	106.812592	15.0008
7300.000000	107.492477	15.8933
7400.000000	108.183846	16.3042
7500.000000	108.940895	15.8993
7620.000000	109.891441	13.4527
7750.000000	110.757820	7.5373
7880.000000	111.077003	-1.2421
8000.000000	110.686348	-9.4865
8120.000000	109.778961	-15.4731
8250.000000	108.551239	-18.5357
8380.000000	107.326973	-18.5913
8500.000000	106.302727	-16.8031
8620.000000	105.406013	-13.7126
8750.000000	104.591705	-9.5060
8850.000000	104.062813	-5.7606
9000.000000	103.439636	0.3929
9120.000000	103.083855	5.5334
9250.000000	102.827469	11.1961
9380.000000	102.704208	16.8565
9500.000000	102.709213	22.0002
9620.000000	102.833878	26.9252
9750.000000	103.105186	31.9514
9880.000000	103.529564	36.4319
10000.000000	104.068604	39.9022
10150.000000	104.962357	42.8284
10300.000000	106.086716	43.2649
10440.000000	107.267487	40.1630
10600.000000	108.420738	30.7420
10750.000000	108.633339	16.8107
10900.000000	107.609024	3.2416
11060.000000	105.704414	-5.6925
11200.000000	103.925102	-8.8303
11380.000000	101.845718	-8.6713
11500.000000	100.637245	-7.0320
11720.000000	98.742523	-2.4118
11800.000000	98.127151	-0.2805
12060.000000	96.520798	7.7495
12200.000000	95.874710	12.2323
12410.000000	95.139259	18.7973
12500.000000	94.908134	21.5071
12650.000000	94.635284	26.0068
12800.000000	94.555313	30.2663
13150.000000	95.112762	36.1058
13200.000000	95.237968	36.2093
13400.000000	95.695206	35.3025
13600.000000	96.191872	32.4441
13800.000000	96.697899	26.9784
14000.000000	97.031189	18.1589
14300.000000	96.605148	1.0172
14500.000000	95.648407	-9.7407
14750.000000	94.182861	-20.0630
15000.000000	92.742302	-28.0825
15250.000000	91.506996	-34.5811
15500.000000	90.550491	-41.0667
15750.000000	89.896606	-48.5457
16000.000000	89.517067	-58.0607
16250.000000	89.324265	-70.2224
16500.000000	89.258713	-86.1808
16750.000000	89.198891	-107.2475
17000.000000	88.674835	-134.5272
17250.000000	87.137619	-165.3410
17500.000000	84.791374	165.5597
17750.000000	82.168633	138.9655
18000.000000	79.692574	112.2846
18250.000000	77.442856	84.5136
18500.000000	75.534348	53.9182
18750.000000	73.831459	19.3238
19000.000000	72.331093	-22.3085
19250.000000	71.142632	-71.3515
19500.000000	70.058151	-131.8396
19750.000000	68.917099	153.5586
