* Measurement data measured by REW V5.20.7
* Source: Trace Arithmetic result A * B
* Format: Trace Arithmetic result A * B
* Dated: Jun 13, 2022 12:22:59 PM
* REW Settings:
*  C-weighting compensation: Off
*  Target level: 75.0 dB
* Note: Trace Arithmetic A times B A = IEF Neutral (iem) B = Default Dataset
* Measurement: A times B
* Smoothing: None
* Frequency Step: 1/48 octave
* Start Frequency: 20.000 Hz
*
* Freq(Hz), SPL(dB)
20.000000, -1.201
20.299999, -1.144
20.600000, -1.088
20.900000, -1.040
21.200001, -1.000
21.400000, -0.957
21.799999, -0.810
22.000000, -0.722
22.400000, -0.545
22.700001, -0.443
23.000000, -0.391
23.299999, -0.350
23.600000, -0.285
24.000000, -0.187
24.299999, -0.123
24.700001, -0.046
25.000000, 0.004
25.400000, 0.080
25.799999, 0.192
26.200001, 0.260
26.500000, 0.249
26.900000, 0.239
27.200001, 0.285
27.600000, 0.361
28.000000, 0.402
28.500000, 0.455
29.000000, 0.562
29.500000, 0.632
30.000000, 0.665
30.400000, 0.719
30.700001, 0.770
31.100000, 0.825
31.500000, 0.859
32.000000, 0.915
32.500000, 0.995
33.000000, 1.041
33.500000, 1.058
34.000000, 1.125
34.500000, 1.229
35.000000, 1.291
35.500000, 1.326
36.000000, 1.397
36.500000, 1.483
37.000000, 1.524
37.500000, 1.535
38.200001, 1.588
38.700001, 1.646
39.500000, 1.711
40.000000, 1.744
40.599998, 1.785
41.200001, 1.830
41.799999, 1.882
42.500000, 1.931
43.099998, 1.958
43.700001, 2.005
44.400002, 2.095
45.000000, 2.142
45.500000, 2.148
46.200001, 2.136
46.799999, 2.117
47.500000, 2.120
48.200001, 2.173
48.700001, 2.217
49.400002, 2.258
50.000000, 2.292
50.799999, 2.369
51.500000, 2.436
52.200001, 2.474
53.000000, 2.482
53.799999, 2.432
54.500000, 2.377
55.200001, 2.344
56.000000, 2.330
57.000000, 2.376
58.000000, 2.422
59.000000, 2.424
60.000000, 2.477
60.799999, 2.546
61.500000, 2.585
62.200001, 2.598
63.000000, 2.601
64.000000, 2.598
65.000000, 2.611
66.000000, 2.652
67.000000, 2.673
68.000000, 2.670
69.000000, 2.688
70.000000, 2.721
71.000000, 2.720
72.000000, 2.700
73.000000, 2.742
74.000000, 2.831
75.000000, 2.873
76.199997, 2.842
77.500000, 2.790
78.800003, 2.744
80.000000, 2.739
81.199997, 2.740
82.500000, 2.708
83.800003, 2.715
85.000000, 2.795
86.199997, 2.858
87.500000, 2.857
88.500000, 2.838
90.000000, 2.795
91.199997, 2.769
92.500000, 2.767
93.800003, 2.772
95.000000, 2.774
96.199997, 2.770
97.500000, 2.750
98.800003, 2.733
100.000000, 2.743
101.500000, 2.767
103.000000, 2.770
104.400002, 2.770
106.000000, 2.799
107.500000, 2.829
109.000000, 2.812
110.599998, 2.776
112.000000, 2.767
113.800003, 2.771
115.000000, 2.770
117.199997, 2.771
118.000000, 2.778
120.599998, 2.810
122.000000, 2.826
124.099998, 2.841
125.000000, 2.836
126.500000, 2.822
128.000000, 2.811
131.500000, 2.823
132.000000, 2.829
134.000000, 2.851
136.000000, 2.827
138.000000, 2.749
140.000000, 2.705
143.000000, 2.709
145.000000, 2.690
147.500000, 2.674
150.000000, 2.699
152.500000, 2.702
155.000000, 2.676
157.500000, 2.697
160.000000, 2.730
162.500000, 2.682
165.000000, 2.622
167.500000, 2.622
170.000000, 2.615
172.500000, 2.557
175.000000, 2.507
177.500000, 2.499
180.000000, 2.484
182.500000, 2.433
185.000000, 2.389
187.500000, 2.376
190.000000, 2.371
192.500000, 2.365
195.000000, 2.354
197.500000, 2.329
200.000000, 2.301
203.000000, 2.291
206.000000, 2.292
209.000000, 2.274
212.000000, 2.241
214.000000, 2.219
218.000000, 2.179
220.000000, 2.165
224.000000, 2.146
227.000000, 2.134
230.000000, 2.121
233.000000, 2.102
236.000000, 2.077
240.000000, 2.029
243.000000, 1.985
247.000000, 1.928
250.000000, 1.889
254.000000, 1.841
258.000000, 1.797
262.000000, 1.761
265.000000, 1.737
269.000000, 1.702
272.000000, 1.674
276.000000, 1.643
280.000000, 1.622
285.000000, 1.607
290.000000, 1.594
295.000000, 1.555
300.000000, 1.501
304.000000, 1.454
307.000000, 1.419
311.000000, 1.381
315.000000, 1.345
320.000000, 1.294
325.000000, 1.238
330.000000, 1.188
335.000000, 1.141
340.000000, 1.094
345.000000, 1.048
350.000000, 1.000
355.000000, 0.958
360.000000, 0.927
365.000000, 0.900
370.000000, 0.872
375.000000, 0.843
382.000000, 0.791
387.000000, 0.755
395.000000, 0.706
400.000000, 0.666
406.000000, 0.607
412.000000, 0.543
418.000000, 0.481
425.000000, 0.439
431.000000, 0.416
437.000000, 0.377
444.000000, 0.327
450.000000, 0.308
455.000000, 0.298
462.000000, 0.267
468.000000, 0.229
475.000000, 0.188
482.000000, 0.147
487.000000, 0.108
494.000000, 0.047
500.000000, 0.000
508.000000, -0.045
515.000000, -0.083
522.000000, -0.122
530.000000, -0.160
538.000000, -0.190
545.000000, -0.223
552.000000, -0.264
560.000000, -0.307
570.000000, -0.345
580.000000, -0.381
590.000000, -0.417
600.000000, -0.447
608.000000, -0.470
615.000000, -0.494
622.000000, -0.518
630.000000, -0.545
640.000000, -0.578
650.000000, -0.613
660.000000, -0.652
670.000000, -0.702
680.000000, -0.756
690.000000, -0.809
700.000000, -0.858
710.000000, -0.896
720.000000, -0.928
730.000000, -0.960
740.000000, -0.986
750.000000, -1.003
762.000000, -1.018
775.000000, -1.034
788.000000, -1.059
800.000000, -1.097
812.000000, -1.134
825.000000, -1.167
838.000000, -1.199
850.000000, -1.146
862.000000, -1.133
875.000000, -1.171
885.000000, -1.196
900.000000, -1.152
912.000000, -1.134
925.000000, -1.103
938.000000, -1.057
950.000000, -1.023
962.000000, -0.926
975.000000, -0.858
988.000000, -0.846
1000.000000, -0.733
1015.000000, -0.591
1030.000000, -0.469
1044.000000, -0.266
1060.000000, -0.125
1075.000000, -0.001
1090.000000, 0.223
1106.000000, 0.381
1120.000000, 0.595
1138.000000, 0.788
1150.000000, 0.958
1172.000000, 1.201
1180.000000, 1.310
1206.000000, 1.722
1220.000000, 1.859
1241.000000, 2.134
1250.000000, 2.225
1265.000000, 2.371
1280.000000, 2.596
1315.000000, 3.013
1320.000000, 3.069
1340.000000, 3.227
1360.000000, 3.409
1380.000000, 3.592
1400.000000, 3.749
1430.000000, 3.969
1450.000000, 4.120
1475.000000, 4.303
1500.000000, 4.471
1525.000000, 4.607
1550.000000, 4.727
1575.000000, 4.849
1600.000000, 4.991
1625.000000, 5.163
1650.000000, 5.342
1675.000000, 5.516
1700.000000, 5.672
1725.000000, 5.813
1750.000000, 5.957
1775.000000, 6.106
1800.000000, 6.252
1825.000000, 6.396
1850.000000, 6.544
1875.000000, 6.694
1900.000000, 6.840
1925.000000, 6.984
1950.000000, 7.137
1975.000000, 7.308
2000.000000, 7.487
2030.000000, 7.715
2060.000000, 7.942
2090.000000, 8.055
2120.000000, 8.265
2140.000000, 8.418
2180.000000, 8.724
2200.000000, 8.877
2240.000000, 9.085
2270.000000, 9.275
2300.000000, 9.512
2330.000000, 9.707
2360.000000, 9.902
2400.000000, 10.225
2430.000000, 10.400
2470.000000, 10.624
2500.000000, 10.800
2540.000000, 11.019
2580.000000, 11.249
2620.000000, 11.384
2650.000000, 11.528
2690.000000, 11.712
2720.000000, 11.776
2760.000000, 11.871
2800.000000, 12.007
2850.000000, 12.058
2900.000000, 12.079
2950.000000, 12.045
3000.000000, 11.994
3040.000000, 11.942
3070.000000, 11.892
3110.000000, 11.739
3150.000000, 11.576
3200.000000, 11.463
3250.000000, 11.339
3300.000000, 11.124
3350.000000, 10.931
3400.000000, 10.712
3450.000000, 10.522
3500.000000, 10.295
3550.000000, 10.129
3600.000000, 9.955
3650.000000, 9.799
3700.000000, 9.628
3750.000000, 9.405
3820.000000, 9.212
3870.000000, 9.078
3950.000000, 8.833
4000.000000, 8.676
4060.000000, 8.592
4120.000000, 8.422
4180.000000, 8.277
4250.000000, 8.190
4310.000000, 8.124
4370.000000, 8.038
4440.000000, 8.056
4500.000000, 8.018
4550.000000, 8.000
4620.000000, 7.981
4680.000000, 7.975
4750.000000, 7.985
4820.000000, 8.013
4870.000000, 8.047
4940.000000, 8.103
5000.000000, 8.148
5080.000000, 8.213
5150.000000, 8.290
5220.000000, 8.375
5300.000000, 8.468
5380.000000, 8.553
5450.000000, 8.615
5520.000000, 8.668
5600.000000, 8.726
5700.000000, 8.788
5800.000000, 8.840
5900.000000, 8.849
6000.000000, 8.798
6080.000000, 8.737
6150.000000, 8.594
6220.000000, 8.476
6300.000000, 8.374
6400.000000, 8.209
6500.000000, 8.008
6600.000000, 7.779
6700.000000, 7.528
6800.000000, 7.270
6900.000000, 7.014
7000.000000, 6.767
7100.000000, 6.533
7200.000000, 6.312
7300.000000, 6.030
7400.000000, 5.781
7500.000000, 5.611
7620.000000, 5.419
7750.000000, 5.231
7880.000000, 5.064
8000.000000, 4.925
8120.000000, 4.799
8250.000000, 4.668
8380.000000, 4.523
8500.000000, 4.293
8620.000000, 4.136
8750.000000, 3.917
8850.000000, 3.701
9000.000000, 3.320
9120.000000, 2.973
9250.000000, 2.449
9380.000000, 1.952
9500.000000, 1.462
9620.000000, 0.972
9750.000000, 0.294
9880.000000, -0.595
10000.000000, -1.407
10150.000000, -2.106
10300.000000, -2.604
10440.000000, -3.114
10600.000000, -3.857
10750.000000, -4.520
10900.000000, -5.094
11060.000000, -5.714
11200.000000, -6.139
11380.000000, -6.635
11500.000000, -6.953
11720.000000, -7.313
11800.000000, -7.439
12060.000000, -7.552
12200.000000, -7.539
12410.000000, -7.290
12500.000000, -7.175
12650.000000, -6.852
12800.000000, -6.489
13150.000000, -5.585
13200.000000, -5.478
13400.000000, -5.001
13600.000000, -4.598
13800.000000, -4.204
14000.000000, -3.889
14300.000000, -3.422
14500.000000, -3.220
14750.000000, -2.965
15000.000000, -2.684
15250.000000, -2.432
15500.000000, -2.262
15750.000000, -2.278
16000.000000, -2.462
16250.000000, -2.963
16500.000000, -3.603
16750.000000, -4.263
17000.000000, -5.127
17250.000000, -6.054
17500.000000, -6.966
17750.000000, -7.998
18000.000000, -9.012
18250.000000, -9.895
18500.000000, -10.774
18750.000000, -11.607
19000.000000, -12.430
19250.000000, -13.139
19500.000000, -13.844
19750.000000, -14.499
20000.000000, -14.934
