* Measurement data measured by REW V5.19
* Source: ASIO MOTU M Series, In 1
* Format: 1M Log Swept Sine, 1 sweep at -3.0 dBFS  With no timing reference
* Dated: 19 Aug, 2022 3:37:44 AM
* REW Settings:
*  C-weighting compensation: Off
*  Target level: 75.0 dB
* Note: ; 
* Measurement: Aug 19 3:37:44
* Smoothing: 1/48 octave
* Frequency Step: 1/48 octave
* Start Frequency: 10.1 Hz
*
* Freq(Hz), SPL(dB), Phase(degrees)
10.145, 55.172, -60.835
10.293, 55.265, -61.372
10.443, 55.363, -62.076
10.595, 55.513, -62.973
10.749, 55.672, -63.886
10.905, 55.802, -64.528
11.064, 55.925, -65.066
11.225, 56.068, -65.703
11.388, 56.222, -66.385
11.554, 56.377, -67.069
11.722, 56.533, -67.766
11.892, 56.689, -68.500
12.065, 56.844, -69.270
12.241, 56.994, -70.088
12.419, 57.140, -70.938
12.599, 57.275, -71.768
12.782, 57.402, -72.580
12.968, 57.524, -73.365
13.157, 57.643, -74.103
13.348, 57.761, -74.775
13.543, 57.883, -75.408
13.740, 58.012, -76.007
13.939, 58.150, -76.613
14.142, 58.295, -77.243
14.348, 58.445, -77.929
14.557, 58.594, -78.682
14.768, 58.740, -79.505
14.983, 58.876, -80.378
15.201, 59.001, -81.272
15.422, 59.113, -82.162
15.646, 59.216, -83.005
15.874, 59.313, -83.791
16.105, 59.409, -84.507
16.339, 59.509, -85.171
16.577, 59.614, -85.806
16.818, 59.727, -86.434
17.063, 59.846, -87.085
17.311, 59.966, -87.766
17.563, 60.085, -88.473
17.818, 60.202, -89.199
18.077, 60.317, -89.925
18.340, 60.430, -90.643
18.607, 60.544, -91.352
18.877, 60.659, -92.059
19.152, 60.775, -92.774
19.431, 60.892, -93.501
19.713, 61.008, -94.240
20.000, 61.121, -94.983
20.291, 61.233, -95.723
20.586, 61.344, -96.457
20.885, 61.454, -97.186
21.189, 61.565, -97.918
21.497, 61.673, -98.654
21.810, 61.779, -99.390
22.127, 61.882, -100.114
22.449, 61.983, -100.815
22.776, 62.085, -101.494
23.107, 62.190, -102.165
23.443, 62.297, -102.846
23.784, 62.404, -103.553
24.130, 62.509, -104.284
24.481, 62.608, -105.026
24.837, 62.702, -105.757
25.198, 62.794, -106.468
25.565, 62.886, -107.160
25.937, 62.979, -107.846
26.314, 63.073, -108.540
26.697, 63.167, -109.248
27.085, 63.259, -109.966
27.479, 63.349, -110.686
27.879, 63.437, -111.400
28.284, 63.524, -112.105
28.696, 63.613, -112.804
29.113, 63.703, -113.506
29.537, 63.794, -114.220
29.966, 63.885, -114.955
30.402, 63.973, -115.706
30.844, 64.057, -116.462
31.293, 64.139, -117.209
31.748, 64.219, -117.946
32.210, 64.298, -118.680
32.678, 64.377, -119.421
33.154, 64.454, -120.175
33.636, 64.527, -120.942
34.125, 64.595, -121.713
34.621, 64.657, -122.478
35.125, 64.713, -123.221
35.636, 64.764, -123.931
36.154, 64.813, -124.598
36.680, 64.862, -125.217
37.214, 64.914, -125.785
37.755, 64.974, -126.318
38.304, 65.044, -126.849
38.861, 65.122, -127.409
39.427, 65.204, -128.008
40.000, 65.288, -128.647
40.582, 65.375, -129.333
41.172, 65.460, -130.081
41.771, 65.540, -130.883
42.379, 65.610, -131.711
42.995, 65.672, -132.537
43.620, 65.730, -133.351
44.255, 65.784, -134.162
44.898, 65.833, -134.976
45.552, 65.878, -135.786
46.214, 65.919, -136.586
46.886, 65.957, -137.384
47.568, 65.991, -138.190
48.260, 66.019, -139.010
48.962, 66.035, -139.837
49.674, 66.034, -140.596
50.397, 66.028, -141.190
51.130, 66.042, -141.670
51.874, 66.075, -142.190
52.628, 66.112, -142.787
53.394, 66.150, -143.450
54.170, 66.179, -144.204
54.958, 66.185, -144.936
55.758, 66.185, -145.518
56.569, 66.200, -146.013
57.391, 66.232, -146.515
58.226, 66.277, -147.106
59.073, 66.322, -147.865
59.932, 66.346, -148.756
60.804, 66.340, -149.682
61.688, 66.304, -150.556
62.586, 66.238, -151.301
63.496, 66.145, -151.792
64.420, 66.052, -151.890
65.357, 65.995, -151.648
66.307, 65.996, -151.218
67.272, 66.070, -150.814
68.250, 66.203, -150.732
69.243, 66.354, -151.081
70.250, 66.494, -151.790
71.272, 66.610, -152.782
72.309, 66.689, -153.976
73.360, 66.728, -155.253
74.427, 66.735, -156.547
75.510, 66.710, -157.887
76.608, 66.644, -159.234
77.723, 66.531, -160.528
78.853, 66.363, -161.734
80.000, 66.106, -162.716
81.164, 65.748, -162.850
82.344, 65.395, -161.628
83.542, 65.182, -159.144
84.757, 65.247, -156.297
85.990, 65.509, -154.459
87.241, 65.809, -153.680
88.510, 66.093, -153.668
89.797, 66.328, -154.197
91.103, 66.505, -155.011
92.428, 66.636, -155.926
93.773, 66.737, -156.888
95.137, 66.808, -157.863
96.520, 66.862, -158.748
97.924, 66.906, -159.624
99.349, 66.934, -160.428
100.794, 66.956, -161.183
102.260, 66.971, -161.908
103.747, 66.981, -162.617
105.256, 66.983, -163.316
106.787, 66.975, -163.914
108.340, 66.982, -164.507
109.916, 66.974, -165.170
111.515, 66.963, -165.771
113.137, 66.953, -166.356
114.783, 66.940, -166.855
116.452, 66.924, -167.350
118.146, 66.883, -167.772
119.865, 66.850, -168.044
121.608, 66.829, -168.572
123.377, 66.789, -169.019
125.171, 66.767, -169.352
126.992, 66.763, -169.597
128.839, 66.760, -169.836
130.713, 66.756, -170.082
132.615, 66.752, -170.439
134.543, 66.747, -170.847
136.500, 66.740, -171.197
138.486, 66.743, -171.484
140.500, 66.745, -171.851
142.544, 66.751, -172.356
144.617, 66.741, -172.698
146.721, 66.735, -173.080
148.855, 66.703, -173.252
151.020, 66.694, -173.559
153.217, 66.666, -174.036
155.445, 66.642, -174.522
157.706, 66.630, -174.812
160.000, 66.591, -175.149
162.327, 66.582, -175.323
164.688, 66.567, -175.809
167.084, 66.524, -176.107
169.514, 66.502, -176.320
171.980, 66.480, -176.621
174.481, 66.456, -176.905
177.019, 66.435, -177.176
179.594, 66.407, -177.428
182.206, 66.380, -177.642
184.856, 66.362, -177.888
187.545, 66.343, -178.144
190.273, 66.323, -178.343
193.041, 66.302, -178.588
195.849, 66.280, -178.813
198.697, 66.269, -179.074
201.587, 66.252, -179.313
204.520, 66.222, -179.565
207.494, 66.191, -179.854
210.512, 66.165, 179.895
213.574, 66.139, 179.599
216.681, 66.105, 179.280
219.833, 66.044, 179.019
223.030, 65.979, 178.961
226.274, 65.941, 179.056
229.565, 65.931, 179.100
232.905, 65.918, 178.948
236.292, 65.900, 178.858
239.729, 65.882, 178.650
243.216, 65.867, 178.449
246.754, 65.859, 178.213
250.343, 65.834, 178.086
253.984, 65.807, 177.896
257.678, 65.780, 177.708
261.426, 65.762, 177.544
265.229, 65.742, 177.360
269.087, 65.718, 177.132
273.001, 65.687, 176.955
276.972, 65.660, 176.782
281.000, 65.632, 176.592
285.088, 65.603, 176.386
289.234, 65.563, 176.191
293.441, 65.522, 176.085
297.710, 65.491, 175.938
302.040, 65.464, 175.807
306.433, 65.434, 175.668
310.890, 65.394, 175.529
315.412, 65.358, 175.374
320.000, 65.333, 175.227
324.655, 65.303, 175.045
329.377, 65.264, 174.816
334.168, 65.223, 174.628
339.028, 65.177, 174.453
343.959, 65.136, 174.283
348.962, 65.088, 174.056
354.038, 65.023, 173.849
359.188, 64.953, 173.745
364.412, 64.888, 173.799
369.713, 64.848, 173.901
375.090, 64.823, 173.862
380.546, 64.795, 173.669
386.081, 64.754, 173.484
391.697, 64.703, 173.290
397.395, 64.650, 173.107
403.175, 64.594, 172.866
409.039, 64.517, 172.602
414.989, 64.435, 172.476
421.025, 64.365, 172.322
427.149, 64.278, 172.060
433.362, 64.174, 171.862
439.665, 64.062, 171.710
446.060, 63.950, 171.587
452.548, 63.835, 171.481
459.131, 63.703, 171.323
465.809, 63.536, 171.144
472.584, 63.344, 171.217
479.458, 63.145, 171.303
486.432, 62.891, 171.497
493.507, 62.608, 172.186
500.686, 62.326, 173.248
507.968, 62.030, 174.732
515.357, 61.732, 177.078
522.853, 61.566, -179.761
530.458, 61.546, -176.549
538.174, 61.654, -173.507
546.002, 61.875, -170.996
553.943, 62.102, -169.511
562.001, 62.158, -167.850
570.175, 62.443, -164.312
578.469, 63.074, -162.707
586.883, 63.626, -163.032
595.419, 64.018, -164.259
604.080, 64.322, -165.727
612.866, 64.531, -167.480
621.780, 64.642, -169.166
630.824, 64.716, -170.721
640.000, 64.746, -172.318
649.309, 64.718, -174.060
658.753, 64.581, -175.487
668.335, 64.443, -176.529
678.056, 64.268, -177.613
687.919, 63.960, -178.243
697.925, 63.646, -177.531
708.076, 63.480, -175.996
718.376, 63.498, -174.732
728.825, 63.550, -174.377
739.426, 63.546, -174.350
750.181, 63.517, -174.349
761.093, 63.443, -174.401
772.163, 63.354, -174.335
783.394, 63.232, -174.130
794.789, 63.100, -173.802
806.349, 62.909, -173.127
818.078, 62.781, -171.638
829.977, 62.712, -170.338
842.050, 62.655, -168.547
854.297, 62.728, -166.694
866.724, 62.864, -165.248
879.330, 63.042, -164.136
892.120, 63.257, -163.566
905.097, 63.431, -163.912
918.262, 63.478, -164.070
931.618, 63.544, -164.079
945.169, 63.598, -164.424
958.917, 63.567, -164.772
972.864, 63.483, -164.801
987.015, 63.376, -164.454
1001.371, 63.258, -163.468
1015.937, 63.273, -162.036
1030.714, 63.318, -161.158
1045.706, 63.350, -160.087
1060.916, 63.471, -158.707
1076.347, 63.649, -158.364
1092.003, 63.727, -157.859
1107.887, 63.929, -157.338
1124.001, 64.003, -158.012
1140.350, 64.037, -157.260
1156.937, 64.202, -157.220
1173.765, 64.300, -157.807
1190.838, 64.290, -158.006
1208.159, 64.317, -158.380
1225.732, 64.243, -158.556
1243.561, 64.168, -158.204
1261.649, 64.157, -157.634
1280.000, 64.152, -157.324
1298.618, 64.096, -156.990
1317.507, 64.061, -156.311
1336.670, 63.986, -155.730
1356.113, 63.907, -154.411
1375.838, 63.936, -152.943
1395.850, 63.967, -151.662
1416.153, 64.063, -150.019
1436.751, 64.176, -148.852
1457.649, 64.348, -147.492
1478.851, 64.508, -146.591
1500.362, 64.680, -145.611
1522.185, 64.879, -144.741
1544.326, 65.145, -144.195
1566.789, 65.331, -144.165
1589.578, 65.463, -144.399
1612.699, 65.532, -143.669
1636.156, 65.756, -143.341
1659.955, 65.826, -143.421
1684.099, 65.944, -142.692
1708.595, 66.079, -142.175
1733.447, 66.252, -141.834
1758.661, 66.336, -141.537
1784.241, 66.405, -140.537
1810.193, 66.584, -139.221
1836.523, 66.815, -137.918
1863.236, 67.171, -136.734
1890.338, 67.565, -136.786
1917.833, 67.762, -136.384
1945.729, 68.163, -135.699
1974.030, 68.629, -135.624
2002.743, 69.043, -136.336
2031.873, 69.461, -137.333
2061.428, 69.839, -138.654
2091.412, 70.341, -139.744
2121.832, 70.826, -143.332
2152.695, 71.029, -147.719
2184.007, 70.906, -151.864
2215.774, 70.688, -154.827
2248.003, 70.276, -157.541
2280.701, 69.541, -157.273
2313.874, 69.177, -152.822
2347.530, 69.500, -148.685
2381.676, 70.038, -146.976
2416.318, 70.671, -146.984
2451.464, 71.062, -148.925
2487.122, 71.269, -150.183
2523.298, 71.592, -151.135
2560.000, 71.910, -152.702
2597.236, 72.077, -154.818
2635.014, 72.253, -155.532
2673.341, 72.698, -157.059
2712.226, 72.985, -160.516
2751.676, 73.052, -163.458
2791.700, 73.074, -166.048
2832.306, 73.107, -167.716
2873.503, 73.298, -169.416
2915.299, 73.538, -172.403
2957.703, 73.657, -175.748
3000.724, 73.794, 179.841
3044.370, 73.609, 174.462
3088.652, 73.189, 170.816
3133.577, 72.899, 167.679
3179.156, 72.477, 163.955
3225.398, 71.872, 160.970
3272.312, 71.229, 159.002
3319.909, 70.490, 157.477
3368.198, 69.651, 157.491
3417.190, 68.812, 159.131
3466.894, 68.013, 163.132
3517.321, 67.723, 169.446
3568.482, 67.930, 173.785
3620.387, 68.075, 176.705
3673.046, 68.459, -179.705
3726.472, 69.146, -178.562
3780.675, 69.669, 179.972
3835.666, 69.987, 177.915
3891.457, 70.121, 175.020
3948.060, 70.044, 173.549
4005.486, 70.172, 172.241
4063.747, 70.154, 170.118
4122.855, 70.198, 168.480
4182.824, 70.147, 165.562
4243.664, 69.907, 163.507
4305.390, 69.731, 161.525
4368.013, 69.398, 159.908
4431.547, 69.241, 158.835
4496.005, 68.941, 156.431
4561.401, 68.528, 154.885
4627.749, 67.991, 153.447
4695.061, 67.380, 153.569
4763.352, 66.780, 154.183
4832.637, 66.173, 157.100
4902.929, 65.878, 160.410
4974.244, 65.754, 164.248
5046.596, 65.930, 166.867
5120.000, 66.069, 168.672
5194.472, 66.220, 169.311
5270.027, 66.272, 170.722
5346.682, 66.544, 172.046
5424.451, 66.947, 172.426
5503.352, 67.341, 170.502
5583.399, 67.530, 167.863
5664.612, 67.605, 163.732
5747.006, 67.225, 159.145
5830.598, 66.357, 156.940
5915.406, 65.624, 158.679
6001.447, 65.175, 161.211
6088.740, 64.885, 164.321
6177.303, 65.035, 167.975
6267.154, 65.190, 167.976
6358.312, 65.169, 168.475
6450.796, 65.276, 170.224
6544.625, 65.477, 169.090
6639.818, 65.417, 167.564
6736.397, 65.304, 167.763
6834.380, 65.188, 166.421
6933.789, 64.883, 165.873
7034.643, 64.707, 167.537
7136.964, 64.715, 167.801
7240.773, 64.624, 167.052
7346.093, 64.539, 166.920
7452.944, 64.427, 166.293
7561.350, 64.150, 165.046
7671.332, 63.673, 164.396
7782.915, 63.073, 166.055
7896.120, 62.673, 170.820
8010.971, 62.850, 176.396
8127.493, 63.594, -179.968
8245.711, 64.701, 179.202
8365.647, 65.496, 172.001
8487.328, 65.322, 161.841
8610.779, 64.186, 154.399
8736.026, 62.627, 151.985
8863.095, 61.007, 153.996
8992.011, 59.418, 161.409
9122.803, 58.842, 174.038
9255.497, 59.371, -176.396
9390.121, 60.144, -171.323
9526.704, 60.808, -169.136
9665.273, 61.287, -168.214
9805.857, 61.622, -167.157
9948.487, 62.130, -165.336
10093.191, 62.886, -164.938
10240.000, 63.841, -166.759
10388.944, 64.740, -173.458
10540.055, 64.908, 175.981
10693.363, 64.224, 165.534
10848.902, 62.787, 157.881
11006.703, 60.731, 155.992
11166.799, 58.677, 162.776
11329.224, 57.766, 175.138
11494.012, 58.257, -175.041
11661.195, 58.988, -172.839
11830.812, 58.920, -173.940
12002.895, 58.374, -170.485
12177.480, 58.339, -164.107
12354.606, 58.670, -156.623
12534.309, 60.594, -147.783
12716.624, 63.107, -154.590
12901.592, 63.601, -171.438
13089.250, 62.670, 177.134
13279.637, 61.525, 172.407
13472.794, 60.884, 170.261
13668.760, 60.580, 164.824
13867.577, 59.838, 154.786
14069.285, 57.882, 143.359
14273.928, 54.534, 138.665
14481.547, 50.099, 149.932
14692.186, 47.633, 178.924
14905.889, 48.009, -167.683
15122.700, 45.853, -158.401
15342.664, 45.132, -104.871
15565.829, 51.705, -71.779
15792.239, 56.148, -75.540
16021.942, 59.228, -85.597
16254.986, 61.448, -99.124
16491.422, 62.670, -115.447
16731.295, 62.842, -131.785
16974.656, 62.157, -143.937
17221.559, 61.307, -152.191
17472.053, 60.187, -157.245
17726.189, 59.481, -157.493
17984.021, 59.687, -161.958
18245.605, 58.943, -174.345
18510.994, 56.562, -178.416
18780.242, 55.271, -172.282
19053.408, 55.114, -177.247
19330.547, 53.093, 174.557
19611.715, 49.755, 178.230
19896.975, 46.483, -163.327
