* Measurement data measured by REW V5.19
* Source: ASIO MOTU M Series, In 1
* Format: 1M Log Swept Sine, 1 sweep at -3.0 dBFS  With no timing reference
* Dated: 19 Aug, 2022 3:42:00 AM
* REW Settings:
*  C-weighting compensation: Off
*  Target level: 75.0 dB
* Note: ; 
* Measurement: Aug 19 3:42:00
* Smoothing: 1/48 octave
* Frequency Step: 1/48 octave
* Start Frequency: 10.1 Hz
*
* Freq(Hz), SPL(dB), Phase(degrees)
10.145, 54.110, -58.389
10.293, 54.214, -58.870
10.443, 54.322, -59.515
10.595, 54.491, -60.355
10.749, 54.672, -61.239
10.905, 54.821, -61.929
11.064, 54.960, -62.564
11.225, 55.112, -63.321
11.388, 55.269, -64.145
11.554, 55.418, -64.965
11.722, 55.561, -65.788
11.892, 55.697, -66.599
12.065, 55.827, -67.397
12.241, 55.953, -68.175
12.419, 56.077, -68.923
12.599, 56.200, -69.608
12.782, 56.323, -70.250
12.968, 56.452, -70.869
13.157, 56.586, -71.473
13.348, 56.726, -72.066
13.543, 56.872, -72.681
13.740, 57.021, -73.328
13.939, 57.172, -74.016
14.142, 57.321, -74.742
14.348, 57.466, -75.502
14.557, 57.606, -76.279
14.768, 57.740, -77.067
14.983, 57.869, -77.841
15.201, 57.994, -78.598
15.422, 58.117, -79.334
15.646, 58.240, -80.050
15.874, 58.363, -80.755
16.105, 58.488, -81.455
16.339, 58.613, -82.162
16.577, 58.738, -82.878
16.818, 58.860, -83.603
17.063, 58.981, -84.332
17.311, 59.098, -85.057
17.563, 59.212, -85.769
17.818, 59.325, -86.463
18.077, 59.438, -87.132
18.340, 59.552, -87.780
18.607, 59.669, -88.415
18.877, 59.791, -89.049
19.152, 59.918, -89.701
19.431, 60.047, -90.390
19.713, 60.175, -91.126
20.000, 60.298, -91.903
20.291, 60.412, -92.701
20.586, 60.517, -93.485
20.885, 60.615, -94.217
21.189, 60.711, -94.873
21.497, 60.814, -95.459
21.810, 60.930, -96.021
22.127, 61.058, -96.622
22.449, 61.193, -97.314
22.776, 61.323, -98.108
23.107, 61.438, -98.966
23.443, 61.536, -99.812
23.784, 61.622, -100.573
24.130, 61.707, -101.222
24.481, 61.802, -101.790
24.837, 61.913, -102.355
25.198, 62.033, -102.985
25.565, 62.153, -103.704
25.937, 62.263, -104.481
26.314, 62.364, -105.261
26.697, 62.458, -106.008
27.085, 62.552, -106.724
27.479, 62.647, -107.438
27.879, 62.742, -108.166
28.284, 62.834, -108.898
28.696, 62.923, -109.614
29.113, 63.013, -110.307
29.537, 63.106, -110.997
29.966, 63.201, -111.704
30.402, 63.295, -112.430
30.844, 63.387, -113.158
31.293, 63.478, -113.875
31.748, 63.571, -114.592
32.210, 63.664, -115.330
32.678, 63.754, -116.095
33.154, 63.837, -116.874
33.636, 63.912, -117.650
34.125, 63.979, -118.401
34.621, 64.038, -119.100
35.125, 64.095, -119.720
35.636, 64.159, -120.277
36.154, 64.233, -120.831
36.680, 64.313, -121.425
37.214, 64.395, -122.053
37.755, 64.481, -122.716
38.304, 64.571, -123.459
38.861, 64.652, -124.295
39.427, 64.715, -125.113
40.000, 64.776, -125.799
40.582, 64.860, -126.427
41.172, 64.958, -127.170
41.771, 65.045, -128.018
42.379, 65.120, -128.819
42.995, 65.202, -129.581
43.620, 65.285, -130.454
44.255, 65.341, -131.400
44.898, 65.371, -132.222
45.552, 65.409, -132.891
46.214, 65.466, -133.606
46.886, 65.520, -134.523
47.568, 65.542, -135.552
48.260, 65.536, -136.477
48.962, 65.535, -137.283
49.674, 65.535, -138.101
50.397, 65.526, -138.813
51.130, 65.545, -139.394
51.874, 65.580, -140.185
52.628, 65.563, -141.003
53.394, 65.539, -141.294
54.170, 65.608, -141.483
54.958, 65.706, -142.359
55.758, 65.690, -143.744
56.569, 65.533, -144.485
57.391, 65.452, -144.053
58.226, 65.547, -144.310
59.073, 65.463, -145.595
59.932, 65.244, -145.042
60.804, 65.364, -143.670
61.688, 65.582, -144.196
62.586, 65.636, -145.058
63.496, 65.693, -145.610
64.420, 65.723, -146.325
65.357, 65.724, -146.734
66.307, 65.746, -146.973
67.272, 65.795, -147.060
68.250, 65.898, -147.287
69.243, 66.004, -147.830
70.250, 66.108, -148.501
71.272, 66.211, -149.432
72.309, 66.275, -150.620
73.360, 66.290, -151.829
74.427, 66.274, -153.031
75.510, 66.209, -154.257
76.608, 66.086, -155.340
77.723, 65.907, -156.158
78.853, 65.670, -156.435
80.000, 65.423, -155.800
81.164, 65.262, -154.130
82.344, 65.323, -151.983
83.542, 65.563, -150.738
84.757, 65.795, -150.385
85.990, 66.033, -150.363
87.241, 66.263, -151.003
88.510, 66.416, -152.027
89.797, 66.518, -153.046
91.103, 66.585, -154.046
92.428, 66.628, -154.825
93.773, 66.691, -155.520
95.137, 66.749, -156.331
96.520, 66.782, -157.216
97.924, 66.791, -158.044
99.349, 66.796, -158.809
100.794, 66.798, -159.558
102.260, 66.800, -160.225
103.747, 66.798, -160.849
105.256, 66.797, -161.404
106.787, 66.790, -161.933
108.340, 66.787, -162.531
109.916, 66.774, -163.116
111.515, 66.762, -163.706
113.137, 66.746, -164.245
114.783, 66.730, -164.720
116.452, 66.715, -165.253
118.146, 66.690, -165.811
119.865, 66.632, -166.347
121.608, 66.597, -166.377
123.377, 66.598, -166.552
125.171, 66.599, -166.735
126.992, 66.605, -167.005
128.839, 66.613, -167.365
130.713, 66.618, -167.749
132.615, 66.625, -168.137
134.543, 66.628, -168.567
136.500, 66.624, -169.047
138.486, 66.606, -169.457
140.500, 66.586, -169.832
142.544, 66.560, -170.296
144.617, 66.531, -170.754
146.721, 66.521, -171.181
148.855, 66.518, -171.487
151.020, 66.515, -171.729
153.217, 66.484, -171.936
155.445, 66.458, -172.241
157.706, 66.440, -172.641
160.000, 66.423, -173.005
162.327, 66.405, -173.340
164.688, 66.374, -173.655
167.084, 66.332, -173.900
169.514, 66.304, -174.063
171.980, 66.287, -174.328
174.481, 66.253, -174.597
177.019, 66.222, -174.776
179.594, 66.196, -174.885
182.206, 66.179, -174.957
184.856, 66.175, -175.073
187.545, 66.169, -175.235
190.273, 66.168, -175.440
193.041, 66.158, -175.679
195.849, 66.145, -175.949
198.697, 66.138, -176.256
201.587, 66.127, -176.558
204.520, 66.114, -176.724
207.494, 66.095, -176.951
210.512, 66.071, -177.201
213.574, 66.037, -177.522
216.681, 65.975, -177.806
219.833, 65.912, -177.854
223.030, 65.895, -177.669
226.274, 65.908, -177.638
229.565, 65.902, -177.864
232.905, 65.886, -178.147
236.292, 65.875, -178.303
239.729, 65.875, -178.445
243.216, 65.861, -178.608
246.754, 65.846, -178.830
250.343, 65.815, -179.077
253.984, 65.799, -179.197
257.678, 65.782, -179.314
261.426, 65.766, -179.452
265.229, 65.753, -179.645
269.087, 65.740, -179.860
273.001, 65.720, 179.965
276.972, 65.709, 179.768
281.000, 65.695, 179.549
285.088, 65.665, 179.309
289.234, 65.634, 179.091
293.441, 65.608, 178.979
297.710, 65.582, 178.710
302.040, 65.549, 178.414
306.433, 65.503, 178.217
310.890, 65.459, 178.123
315.412, 65.430, 178.048
320.000, 65.405, 177.952
324.655, 65.381, 177.807
329.377, 65.348, 177.606
334.168, 65.306, 177.450
339.028, 65.264, 177.309
343.959, 65.234, 177.209
348.962, 65.201, 177.062
354.038, 65.171, 176.953
359.188, 65.150, 176.804
364.412, 65.126, 176.540
369.713, 65.090, 176.275
375.090, 65.045, 175.948
380.546, 64.995, 175.665
386.081, 64.939, 175.394
391.697, 64.874, 175.140
397.395, 64.811, 174.854
403.175, 64.744, 174.480
409.039, 64.648, 174.145
414.989, 64.544, 173.894
421.025, 64.445, 173.605
427.149, 64.322, 173.191
433.362, 64.166, 172.802
439.665, 63.987, 172.572
446.060, 63.778, 172.452
452.548, 63.540, 172.486
459.131, 63.261, 172.767
465.809, 62.933, 173.471
472.584, 62.593, 174.982
479.458, 62.310, 177.260
486.432, 62.111, -179.847
493.507, 62.054, -176.541
500.686, 62.148, -173.264
507.968, 62.389, -170.308
515.357, 62.742, -168.029
522.853, 63.187, -166.681
530.458, 63.630, -166.590
538.174, 63.982, -167.374
546.002, 64.252, -168.557
553.943, 64.471, -170.174
562.001, 64.587, -172.821
570.175, 64.281, -176.104
578.469, 63.643, -174.073
586.883, 63.929, -171.487
595.419, 64.125, -172.425
604.080, 64.121, -173.504
612.866, 64.015, -174.380
621.780, 63.841, -174.822
630.824, 63.636, -174.733
640.000, 63.405, -174.093
649.309, 63.207, -172.811
658.753, 63.062, -170.773
668.335, 63.088, -168.379
678.056, 63.279, -166.510
687.919, 63.509, -165.625
697.925, 63.714, -165.607
708.076, 63.745, -166.073
718.376, 63.638, -165.449
728.825, 63.663, -163.554
739.426, 63.922, -161.979
750.181, 64.233, -161.644
761.093, 64.476, -161.946
772.163, 64.675, -162.629
783.394, 64.793, -163.440
794.789, 64.871, -164.193
806.349, 64.896, -164.814
818.078, 64.956, -164.927
829.977, 65.042, -165.671
842.050, 65.057, -166.348
854.297, 65.080, -167.025
866.724, 65.035, -167.801
879.330, 64.971, -168.110
892.120, 64.941, -168.422
905.097, 64.877, -169.076
918.262, 64.733, -168.927
931.618, 64.697, -168.626
945.169, 64.693, -168.732
958.917, 64.589, -169.076
972.864, 64.462, -168.657
987.015, 64.420, -168.365
1001.371, 64.297, -168.066
1015.937, 64.240, -167.468
1030.714, 64.116, -166.997
1045.706, 64.001, -165.704
1060.916, 63.992, -163.938
1076.347, 64.071, -162.754
1092.003, 64.163, -161.173
1107.887, 64.475, -160.263
1124.001, 64.630, -161.022
1140.350, 64.714, -160.955
1156.937, 64.791, -161.369
1173.765, 64.843, -161.842
1190.838, 64.770, -161.926
1208.159, 64.809, -161.809
1225.732, 64.786, -162.038
1243.561, 64.720, -161.812
1261.649, 64.744, -161.520
1280.000, 64.700, -161.698
1298.618, 64.591, -161.381
1317.507, 64.548, -160.683
1336.670, 64.454, -160.296
1356.113, 64.354, -158.994
1375.838, 64.377, -157.755
1395.850, 64.353, -156.511
1416.153, 64.438, -154.812
1436.751, 64.557, -153.549
1457.649, 64.798, -152.371
1478.851, 64.980, -152.330
1500.362, 65.071, -152.388
1522.185, 65.114, -152.056
1544.326, 65.156, -151.484
1566.789, 65.222, -150.480
1589.578, 65.375, -149.991
1612.699, 65.459, -149.293
1636.156, 65.615, -148.965
1659.955, 65.647, -148.764
1684.099, 65.726, -147.641
1708.595, 65.880, -146.773
1733.447, 66.059, -146.498
1758.661, 66.111, -146.196
1784.241, 66.135, -144.743
1810.193, 66.381, -143.355
1836.523, 66.579, -142.112
1863.236, 66.980, -140.977
1890.338, 67.324, -141.245
1917.833, 67.530, -140.880
1945.729, 67.893, -140.545
1974.030, 68.327, -140.465
2002.743, 68.721, -141.466
2031.873, 69.096, -143.027
2061.428, 69.318, -144.917
2091.412, 69.638, -145.922
2121.832, 69.948, -149.224
2152.695, 69.962, -152.776
2184.007, 69.650, -155.891
2215.774, 69.280, -155.805
2248.003, 69.272, -155.953
2280.701, 68.944, -156.738
2313.874, 68.668, -154.819
2347.530, 68.645, -152.156
2381.676, 68.816, -149.348
2416.318, 69.327, -147.490
2451.464, 69.687, -147.654
2487.122, 69.970, -146.819
2523.298, 70.520, -146.174
2560.000, 71.147, -146.971
2597.236, 71.623, -149.759
2635.014, 71.925, -151.642
2673.341, 72.408, -154.312
2712.226, 72.610, -158.868
2751.676, 72.452, -161.948
2791.700, 72.371, -162.774
2832.306, 72.650, -163.809
2873.503, 72.859, -166.380
2915.299, 73.013, -168.871
2957.703, 73.261, -172.029
3000.724, 73.300, -176.899
3044.370, 73.052, 179.211
3088.652, 72.887, 176.482
3133.577, 72.779, 172.204
3179.156, 72.243, 167.479
3225.398, 71.467, 165.094
3272.312, 70.742, 164.932
3319.909, 70.148, 165.932
3368.198, 69.817, 168.078
3417.190, 69.790, 168.397
3466.894, 69.427, 167.508
3517.321, 68.962, 168.868
3568.482, 68.706, 171.243
3620.387, 68.603, 174.182
3673.046, 68.875, 177.054
3726.472, 69.337, 176.995
3780.675, 69.561, 175.177
3835.666, 69.599, 173.289
3891.457, 69.448, 171.477
3948.060, 69.285, 171.185
4005.486, 69.241, 170.456
4063.747, 69.107, 170.201
4122.855, 69.169, 169.874
4182.824, 69.210, 168.013
4243.664, 69.031, 166.021
4305.390, 68.779, 163.919
4368.013, 68.297, 163.443
4431.547, 68.060, 163.651
4496.005, 67.801, 163.707
4561.401, 67.639, 163.275
4627.749, 67.259, 162.364
4695.061, 66.779, 162.841
4763.352, 66.295, 164.438
4832.637, 66.045, 167.649
4902.929, 66.001, 169.456
4974.244, 65.852, 171.052
5046.596, 65.692, 173.516
5120.000, 65.727, 176.735
5194.472, 65.951, 178.943
5270.027, 66.149, -179.359
5346.682, 66.402, -177.694
5424.451, 66.799, -176.264
5503.352, 67.249, -176.430
5583.399, 67.584, -177.411
5664.612, 67.821, -178.411
5747.006, 68.130, -179.186
5830.598, 68.513, 178.783
5915.406, 68.737, 175.211
6001.447, 68.667, 172.496
6088.740, 68.803, 169.553
6177.303, 68.721, 165.281
6267.154, 68.263, 160.816
6358.312, 67.660, 158.731
6450.796, 67.096, 158.707
6544.625, 66.670, 157.924
6639.818, 66.217, 157.709
6736.397, 65.819, 159.539
6834.380, 65.661, 159.545
6933.789, 65.248, 158.713
7034.643, 64.797, 160.890
7136.964, 64.619, 162.882
7240.773, 64.460, 164.294
7346.093, 64.536, 166.503
7452.944, 64.834, 166.795
7561.350, 64.978, 164.701
7671.332, 64.818, 161.630
7782.915, 64.368, 159.276
7896.120, 63.735, 158.577
8010.971, 63.064, 159.374
8127.493, 62.415, 162.106
8245.711, 62.019, 166.504
8365.647, 61.959, 172.051
8487.328, 62.563, 177.372
8610.779, 63.612, 178.003
8736.026, 64.427, 173.356
8863.095, 64.716, 165.302
8992.011, 64.055, 155.705
9122.803, 62.605, 150.781
9255.497, 60.887, 151.813
9390.121, 59.644, 158.268
9526.704, 59.126, 165.255
9665.273, 59.118, 171.508
9805.857, 59.498, 174.688
9948.487, 59.763, 174.347
10093.191, 59.746, 171.412
10240.000, 59.026, 166.951
10388.944, 57.490, 165.368
10540.055, 55.186, 171.011
10693.363, 53.033, -166.848
10848.902, 55.053, -135.785
11006.703, 59.507, -125.337
11166.799, 62.516, -136.576
11329.224, 63.379, -154.445
11494.012, 62.713, -167.245
11661.195, 61.606, -171.681
11830.812, 61.181, -173.927
12002.895, 60.400, 177.525
12177.480, 57.351, 176.635
12354.606, 55.693, -146.050
12534.309, 61.227, -126.543
12716.624, 63.925, -147.176
12901.592, 63.651, -168.573
13089.250, 62.162, -179.182
13279.637, 60.658, 177.522
13472.794, 59.429, 178.443
13668.760, 58.721, -177.176
13867.577, 59.266, -173.461
14069.285, 60.123, 179.830
14273.928, 59.774, 165.810
14481.547, 57.575, 154.239
14692.186, 54.705, 162.086
14905.889, 55.175, 165.694
15122.700, 54.853, 147.389
15342.664, 52.060, 119.810
15565.829, 47.726, 74.388
15792.239, 47.300, 7.698
16021.942, 51.217, -33.464
16254.986, 55.710, -48.758
16491.422, 59.092, -68.827
16731.295, 60.437, -88.999
16974.656, 61.330, -101.600
17221.559, 62.745, -115.121
17472.053, 63.171, -136.348
17726.189, 62.349, -154.306
17984.021, 61.401, -171.509
18245.605, 59.493, 166.766
18510.994, 55.671, 146.735
18780.242, 49.006, 158.968
19053.408, 47.983, -139.936
19330.547, 50.016, -146.736
19611.715, 48.984, -155.559
19896.975, 47.089, -155.062
