* Measurement data measured by REW V5.20.4
* Source: Trace Arithmetic result Merge B to A
* Format: Trace Arithmetic result Merge B to A
* Dated: 30-Mar-2022 22:30:48
* REW Settings:
*  C-weighting compensation: Off
*  Target level: 75.0 dB
* Note: Trace Arithmetic B to A at 1,000 Hz A = Poseidon R VSG to Crin B = Poseidon R VSG B was scaled by 111.3 dB
* Measurement: Poseidon R VSG to Crin
* Smoothing: 1/24 octave
* Frequency Step: 1/48 octave
* Start Frequency: 20.000 Hz
*
* Freq(Hz)	SPL(dB)
20.000000	69.722
20.299999	69.908
20.600000	70.088
20.900000	70.260
21.200001	70.425
21.400000	70.531
21.799999	70.738
22.000000	70.839
22.400000	71.038
22.700001	71.184
23.000000	71.324
23.299999	71.458
23.600000	71.585
24.000000	71.744
24.299999	71.860
24.700001	72.017
25.000000	72.139
25.400000	72.310
25.799999	72.486
26.200001	72.660
26.500000	72.786
26.900000	72.946
27.200001	73.062
27.600000	73.215
28.000000	73.370
28.500000	73.569
29.000000	73.769
29.500000	73.963
30.000000	74.148
30.400000	74.288
30.700001	74.389
31.100000	74.522
31.500000	74.653
32.000000	74.812
32.500000	74.965
33.000000	75.110
33.500000	75.245
34.000000	75.373
34.500000	75.496
35.000000	75.616
35.500000	75.731
36.000000	75.840
36.500000	75.942
37.000000	76.038
37.500000	76.130
38.200001	76.254
38.700001	76.339
39.500000	76.466
40.000000	76.539
40.599998	76.621
41.200001	76.693
41.799999	76.755
42.500000	76.812
43.099998	76.851
43.700001	76.885
44.400002	76.922
45.000000	76.954
45.500000	76.981
46.200001	77.024
46.799999	77.066
47.500000	77.123
48.200001	77.189
48.700001	77.241
49.400002	77.319
50.000000	77.391
50.799999	77.492
51.500000	77.582
52.200001	77.670
53.000000	77.765
53.799999	77.855
54.500000	77.932
55.200001	78.012
56.000000	78.111
57.000000	78.243
58.000000	78.381
59.000000	78.520
60.000000	78.655
60.799999	78.761
61.500000	78.854
62.200001	78.950
63.000000	79.066
64.000000	79.224
65.000000	79.396
66.000000	79.576
67.000000	79.758
68.000000	79.934
69.000000	80.103
70.000000	80.261
71.000000	80.409
72.000000	80.546
73.000000	80.676
74.000000	80.800
75.000000	80.921
76.199997	81.061
77.500000	81.205
78.800003	81.338
80.000000	81.451
81.199997	81.556
82.500000	81.663
83.800003	81.765
85.000000	81.854
86.199997	81.938
87.500000	82.024
88.500000	82.087
90.000000	82.176
91.199997	82.244
92.500000	82.315
93.800003	82.381
95.000000	82.440
96.199997	82.494
97.500000	82.549
98.800003	82.600
100.000000	82.644
101.500000	82.696
103.000000	82.743
104.400002	82.783
106.000000	82.825
107.500000	82.862
109.000000	82.896
110.599998	82.928
112.000000	82.954
113.800003	82.982
115.000000	82.998
117.199997	83.023
118.000000	83.030
120.599998	83.053
122.000000	83.062
124.099998	83.074
125.000000	83.078
126.500000	83.083
128.000000	83.087
131.500000	83.094
132.000000	83.094
134.000000	83.095
136.000000	83.095
138.000000	83.092
140.000000	83.087
143.000000	83.072
145.000000	83.057
147.500000	83.036
150.000000	83.019
152.500000	83.011
155.000000	83.016
157.500000	83.033
160.000000	83.057
162.500000	83.082
165.000000	83.103
167.500000	83.119
170.000000	83.129
172.500000	83.133
175.000000	83.134
177.500000	83.130
180.000000	83.123
182.500000	83.110
185.000000	83.089
187.500000	83.056
190.000000	83.008
192.500000	82.942
195.000000	82.865
197.500000	82.787
200.000000	82.725
203.000000	82.685
206.000000	82.682
209.000000	82.702
212.000000	82.725
214.000000	82.737
218.000000	82.747
220.000000	82.747
224.000000	82.738
227.000000	82.727
230.000000	82.714
233.000000	82.703
236.000000	82.697
240.000000	82.703
243.000000	82.718
247.000000	82.749
250.000000	82.775
254.000000	82.808
258.000000	82.836
262.000000	82.858
265.000000	82.870
269.000000	82.882
272.000000	82.889
276.000000	82.893
280.000000	82.890
285.000000	82.876
290.000000	82.850
295.000000	82.813
300.000000	82.768
304.000000	82.729
307.000000	82.700
311.000000	82.662
315.000000	82.628
320.000000	82.593
325.000000	82.567
330.000000	82.549
335.000000	82.533
340.000000	82.515
345.000000	82.491
350.000000	82.464
355.000000	82.439
360.000000	82.421
365.000000	82.414
370.000000	82.414
375.000000	82.418
382.000000	82.420
387.000000	82.418
395.000000	82.407
400.000000	82.397
406.000000	82.380
412.000000	82.355
418.000000	82.322
425.000000	82.275
431.000000	82.230
437.000000	82.184
444.000000	82.128
450.000000	82.078
455.000000	82.037
462.000000	81.980
468.000000	81.932
475.000000	81.875
482.000000	81.815
487.000000	81.771
494.000000	81.709
500.000000	81.657
508.000000	81.589
515.000000	81.528
522.000000	81.463
530.000000	81.387
538.000000	81.312
545.000000	81.238
552.000000	81.141
560.000000	80.985
570.000000	80.748
580.000000	80.569
590.000000	80.520
600.000000	80.547
608.000000	80.572
615.000000	80.579
622.000000	80.573
630.000000	80.555
640.000000	80.520
650.000000	80.476
660.000000	80.427
670.000000	80.373
680.000000	80.316
690.000000	80.250
700.000000	80.170
710.000000	80.070
720.000000	79.962
730.000000	79.870
740.000000	79.814
750.000000	79.800
762.000000	79.817
775.000000	79.843
788.000000	79.854
800.000000	79.846
812.000000	79.821
825.000000	79.775
838.000000	79.712
850.000000	79.640
862.000000	79.558
875.000000	79.459
885.000000	79.379
900.000000	79.261
912.000000	79.175
925.000000	79.086
938.000000	78.991
950.000000	78.895
962.000000	78.794
975.000000	78.685
988.000000	78.581
1000.000000	78.496
1015.000000	78.410
1030.000000	78.359
1044.000000	78.347
1060.000000	78.372
1075.000000	78.418
1090.000000	78.468
1106.000000	78.505
1120.000000	78.501
1138.000000	78.425
1150.000000	78.328
1172.000000	78.085
1180.000000	77.987
1206.000000	77.695
1220.000000	77.602
1241.000000	77.584
1250.000000	77.608
1265.000000	77.653
1280.000000	77.679
1315.000000	77.630
1320.000000	77.612
1340.000000	77.511
1360.000000	77.367
1380.000000	77.201
1400.000000	77.046
1430.000000	76.874
1450.000000	76.801
1475.000000	76.744
1500.000000	76.729
1525.000000	76.808
1550.000000	77.031
1575.000000	77.334
1600.000000	77.576
1625.000000	77.649
1650.000000	77.547
1675.000000	77.368
1700.000000	77.236
1725.000000	77.190
1750.000000	77.167
1775.000000	77.094
1800.000000	76.974
1825.000000	76.903
1850.000000	77.004
1875.000000	77.309
1900.000000	77.732
1925.000000	78.171
1950.000000	78.589
1975.000000	79.002
2000.000000	79.430
2030.000000	79.961
2060.000000	80.496
2090.000000	81.021
2120.000000	81.515
2140.000000	81.811
2180.000000	82.272
2200.000000	82.425
2240.000000	82.594
2270.000000	82.652
2300.000000	82.708
2330.000000	82.792
2360.000000	82.908
2400.000000	83.080
2430.000000	83.211
2470.000000	83.396
2500.000000	83.544
2540.000000	83.733
2580.000000	83.880
2620.000000	83.966
2650.000000	83.990
2690.000000	83.980
2720.000000	83.951
2760.000000	83.890
2800.000000	83.825
2850.000000	83.862
2900.000000	84.216
2950.000000	84.857
3000.000000	85.517
3040.000000	85.892
3070.000000	86.044
3110.000000	86.073
3150.000000	85.942
3200.000000	85.652
3250.000000	85.329
3300.000000	85.034
3350.000000	84.786
3400.000000	84.577
3450.000000	84.395
3500.000000	84.240
3550.000000	84.133
3600.000000	84.103
3650.000000	84.178
3700.000000	84.358
3750.000000	84.607
3820.000000	84.947
3870.000000	85.121
3950.000000	85.273
4000.000000	85.329
4060.000000	85.404
4120.000000	85.516
4180.000000	85.670
4250.000000	85.892
4310.000000	86.107
4370.000000	86.337
4440.000000	86.621
4500.000000	86.870
4550.000000	87.072
4620.000000	87.322
4680.000000	87.482
4750.000000	87.584
4820.000000	87.586
4870.000000	87.532
4940.000000	87.398
5000.000000	87.253
5080.000000	87.059
5150.000000	86.928
5220.000000	86.855
5300.000000	86.849
5380.000000	86.915
5450.000000	87.026
5520.000000	87.200
5600.000000	87.518
5700.000000	88.113
5800.000000	88.824
5900.000000	89.500
6000.000000	90.053
6080.000000	90.366
6150.000000	90.517
6220.000000	90.534
6300.000000	90.372
6400.000000	89.890
6500.000000	89.101
6600.000000	88.040
6700.000000	86.783
6800.000000	85.444
6900.000000	84.169
7000.000000	83.128
7100.000000	82.490
7200.000000	82.335
7300.000000	82.599
7400.000000	83.135
7500.000000	83.797
7620.000000	84.575
7750.000000	85.190
7880.000000	85.453
8000.000000	85.400
8120.000000	85.124
8250.000000	84.616
8380.000000	83.901
8500.000000	83.075
8620.000000	82.129
8750.000000	81.023
8850.000000	80.150
9000.000000	78.927
9120.000000	78.214
9250.000000	77.901
9380.000000	78.043
9500.000000	78.389
9620.000000	78.759
9750.000000	79.045
9880.000000	79.124
10000.000000	78.987
10150.000000	78.565
10300.000000	77.970
10440.000000	77.381
10600.000000	76.775
10750.000000	76.305
10900.000000	75.902
11060.000000	75.497
11200.000000	75.142
11380.000000	74.698
11500.000000	74.440
11720.000000	74.156
11800.000000	74.138
12060.000000	74.382
12200.000000	74.597
12410.000000	74.793
12500.000000	74.789
12650.000000	74.653
12800.000000	74.377
13150.000000	73.639
13200.000000	73.590
13400.000000	73.716
13600.000000	74.385
13800.000000	75.349
14000.000000	76.265
14300.000000	77.089
14500.000000	77.171
14750.000000	76.804
15000.000000	76.065
15250.000000	75.165
15500.000000	74.451
15750.000000	74.191
16000.000000	74.069
16250.000000	73.538
16500.000000	72.556
16750.000000	71.600
17000.000000	70.913
17250.000000	70.128
17500.000000	68.896
17750.000000	67.227
18000.000000	65.413
18250.000000	63.845
18500.000000	62.723
18750.000000	61.936
19000.000000	61.303
19250.000000	60.797
19500.000000	60.482
19750.000000	60.349
