* Measurement data measured by REW V5.20.4
* Source: Trace Arithmetic result Merge B to A
* Format: Trace Arithmetic result Merge B to A
* Dated: 06-Apr-2022 13:20:19
* REW Settings:
*  C-weighting compensation: Off
*  Target level: 75.0 dB
* Note: Trace Arithmetic B to A at 1,000 Hz A = Tiger L VSG to Crin B = Tiger L VSG B was scaled by 111.3 dB
* Measurement: Tiger L VSG to Crin
* Smoothing: 1/24 octave
* Frequency Step: 1/48 octave
* Start Frequency: 20.000 Hz
*
* Freq(Hz)	SPL(dB)
20.000000	84.207
20.299999	84.274
20.600000	84.336
20.900000	84.393
21.200001	84.447
21.400000	84.480
21.799999	84.541
22.000000	84.569
22.400000	84.621
22.700001	84.657
23.000000	84.690
23.299999	84.722
23.600000	84.752
24.000000	84.792
24.299999	84.821
24.700001	84.860
25.000000	84.890
25.400000	84.930
25.799999	84.972
26.200001	85.014
26.500000	85.046
26.900000	85.088
27.200001	85.120
27.600000	85.162
28.000000	85.203
28.500000	85.251
29.000000	85.296
29.500000	85.337
30.000000	85.374
30.400000	85.401
30.700001	85.419
31.100000	85.442
31.500000	85.462
32.000000	85.486
32.500000	85.509
33.000000	85.531
33.500000	85.555
34.000000	85.579
34.500000	85.606
35.000000	85.635
35.500000	85.667
36.000000	85.702
36.500000	85.739
37.000000	85.778
37.500000	85.819
38.200001	85.876
38.700001	85.917
39.500000	85.978
40.000000	86.015
40.599998	86.055
41.200001	86.093
41.799999	86.128
42.500000	86.165
43.099998	86.193
43.700001	86.218
44.400002	86.244
45.000000	86.263
45.500000	86.277
46.200001	86.293
46.799999	86.304
47.500000	86.314
48.200001	86.321
48.700001	86.326
49.400002	86.332
50.000000	86.339
50.799999	86.350
51.500000	86.364
52.200001	86.383
53.000000	86.412
53.799999	86.447
54.500000	86.481
55.200001	86.516
56.000000	86.557
57.000000	86.602
58.000000	86.638
59.000000	86.663
60.000000	86.679
60.799999	86.687
61.500000	86.691
62.200001	86.694
63.000000	86.698
64.000000	86.704
65.000000	86.712
66.000000	86.723
67.000000	86.736
68.000000	86.752
69.000000	86.770
70.000000	86.790
71.000000	86.810
72.000000	86.831
73.000000	86.852
74.000000	86.872
75.000000	86.892
76.199997	86.915
77.500000	86.939
78.800003	86.960
80.000000	86.979
81.199997	86.996
82.500000	87.012
83.800003	87.027
85.000000	87.039
86.199997	87.050
87.500000	87.060
88.500000	87.066
90.000000	87.074
91.199997	87.079
92.500000	87.083
93.800003	87.085
95.000000	87.085
96.199997	87.083
97.500000	87.080
98.800003	87.074
100.000000	87.066
101.500000	87.055
103.000000	87.041
104.400002	87.026
106.000000	87.006
107.500000	86.986
109.000000	86.963
110.599998	86.938
112.000000	86.914
113.800003	86.883
115.000000	86.862
117.199997	86.825
118.000000	86.812
120.599998	86.773
122.000000	86.754
124.099998	86.729
125.000000	86.720
126.500000	86.707
128.000000	86.695
131.500000	86.674
132.000000	86.672
134.000000	86.664
136.000000	86.657
138.000000	86.651
140.000000	86.644
143.000000	86.631
145.000000	86.620
147.500000	86.601
150.000000	86.577
152.500000	86.549
155.000000	86.520
157.500000	86.490
160.000000	86.463
162.500000	86.438
165.000000	86.417
167.500000	86.399
170.000000	86.385
172.500000	86.374
175.000000	86.367
177.500000	86.362
180.000000	86.360
182.500000	86.361
185.000000	86.365
187.500000	86.372
190.000000	86.381
192.500000	86.391
195.000000	86.401
197.500000	86.410
200.000000	86.416
203.000000	86.421
206.000000	86.419
209.000000	86.411
212.000000	86.396
214.000000	86.382
218.000000	86.343
220.000000	86.317
224.000000	86.251
227.000000	86.189
230.000000	86.117
233.000000	86.036
236.000000	85.950
240.000000	85.834
243.000000	85.753
247.000000	85.662
250.000000	85.610
254.000000	85.564
258.000000	85.544
262.000000	85.544
265.000000	85.555
269.000000	85.579
272.000000	85.601
276.000000	85.636
280.000000	85.674
285.000000	85.725
290.000000	85.777
295.000000	85.830
300.000000	85.881
304.000000	85.920
307.000000	85.947
311.000000	85.981
315.000000	86.010
320.000000	86.039
325.000000	86.057
330.000000	86.062
335.000000	86.050
340.000000	86.022
345.000000	85.976
350.000000	85.916
355.000000	85.845
360.000000	85.767
365.000000	85.688
370.000000	85.610
375.000000	85.536
382.000000	85.445
387.000000	85.390
395.000000	85.321
400.000000	85.289
406.000000	85.258
412.000000	85.231
418.000000	85.204
425.000000	85.168
431.000000	85.129
437.000000	85.081
444.000000	85.014
450.000000	84.948
455.000000	84.888
462.000000	84.800
468.000000	84.723
475.000000	84.637
482.000000	84.556
487.000000	84.504
494.000000	84.441
500.000000	84.394
508.000000	84.343
515.000000	84.307
522.000000	84.275
530.000000	84.243
538.000000	84.212
545.000000	84.186
552.000000	84.162
560.000000	84.137
570.000000	84.114
580.000000	84.105
590.000000	84.110
600.000000	84.132
608.000000	84.161
615.000000	84.193
622.000000	84.230
630.000000	84.279
640.000000	84.344
650.000000	84.414
660.000000	84.484
670.000000	84.554
680.000000	84.621
690.000000	84.684
700.000000	84.743
710.000000	84.797
720.000000	84.847
730.000000	84.895
740.000000	84.942
750.000000	84.990
762.000000	85.054
775.000000	85.132
788.000000	85.222
800.000000	85.318
812.000000	85.425
825.000000	85.552
838.000000	85.687
850.000000	85.814
862.000000	85.938
875.000000	86.063
885.000000	86.152
900.000000	86.270
912.000000	86.351
925.000000	86.424
938.000000	86.484
950.000000	86.526
962.000000	86.556
975.000000	86.574
988.000000	86.578
1000.000000	86.573
1015.000000	86.565
1030.000000	86.574
1044.000000	86.610
1060.000000	86.685
1075.000000	86.775
1090.000000	86.865
1106.000000	86.938
1120.000000	86.965
1138.000000	86.934
1150.000000	86.877
1172.000000	86.724
1180.000000	86.661
1206.000000	86.484
1220.000000	86.436
1241.000000	86.449
1250.000000	86.476
1265.000000	86.524
1280.000000	86.554
1315.000000	86.511
1320.000000	86.491
1340.000000	86.382
1360.000000	86.228
1380.000000	86.045
1400.000000	85.864
1430.000000	85.650
1450.000000	85.559
1475.000000	85.493
1500.000000	85.473
1525.000000	85.542
1550.000000	85.738
1575.000000	86.010
1600.000000	86.220
1625.000000	86.250
1650.000000	86.089
1675.000000	85.837
1700.000000	85.614
1725.000000	85.453
1750.000000	85.290
1775.000000	85.064
1800.000000	84.780
1825.000000	84.521
1850.000000	84.395
1875.000000	84.447
1900.000000	84.629
1925.000000	84.867
1950.000000	85.118
1975.000000	85.382
2000.000000	85.668
2030.000000	86.044
2060.000000	86.440
2090.000000	86.822
2120.000000	87.153
2140.000000	87.332
2180.000000	87.587
2200.000000	87.669
2240.000000	87.775
2270.000000	87.838
2300.000000	87.927
2330.000000	88.070
2360.000000	88.263
2400.000000	88.553
2430.000000	88.761
2470.000000	89.030
2500.000000	89.240
2540.000000	89.525
2580.000000	89.777
2620.000000	89.961
2650.000000	90.048
2690.000000	90.097
2720.000000	90.084
2760.000000	89.998
2800.000000	89.858
2850.000000	89.743
2900.000000	89.892
2950.000000	90.311
3000.000000	90.779
3040.000000	91.043
3070.000000	91.146
3110.000000	91.169
3150.000000	91.108
3200.000000	91.001
3250.000000	90.920
3300.000000	90.855
3350.000000	90.757
3400.000000	90.579
3450.000000	90.297
3500.000000	89.912
3550.000000	89.448
3600.000000	88.940
3650.000000	88.427
3700.000000	87.933
3750.000000	87.457
3820.000000	86.767
3870.000000	86.233
3950.000000	85.375
4000.000000	84.911
4060.000000	84.497
4120.000000	84.276
4180.000000	84.263
4250.000000	84.498
4310.000000	84.876
4370.000000	85.369
4440.000000	86.035
4500.000000	86.639
4550.000000	87.136
4620.000000	87.775
4680.000000	88.233
4750.000000	88.621
4820.000000	88.828
4870.000000	88.861
4940.000000	88.761
5000.000000	88.567
5080.000000	88.224
5150.000000	87.928
5220.000000	87.732
5300.000000	87.740
5380.000000	88.054
5450.000000	88.542
5520.000000	89.137
5600.000000	89.834
5700.000000	90.624
5800.000000	91.275
5900.000000	91.788
6000.000000	92.198
6080.000000	92.480
6150.000000	92.705
6220.000000	92.914
6300.000000	93.128
6400.000000	93.330
6500.000000	93.390
6600.000000	93.227
6700.000000	92.787
6800.000000	92.067
6900.000000	91.116
7000.000000	90.021
7100.000000	88.884
7200.000000	87.826
7300.000000	86.966
7400.000000	86.411
7500.000000	86.209
7620.000000	86.359
7750.000000	86.766
7880.000000	87.163
8000.000000	87.392
8120.000000	87.442
8250.000000	87.272
8380.000000	86.865
8500.000000	86.303
8620.000000	85.604
8750.000000	84.737
8850.000000	84.024
9000.000000	83.010
9120.000000	82.443
9250.000000	82.282
9380.000000	82.584
9500.000000	83.099
9620.000000	83.653
9750.000000	84.134
9880.000000	84.372
10000.000000	84.313
10150.000000	83.851
10300.000000	83.017
10440.000000	81.994
10600.000000	80.656
10750.000000	79.344
10900.000000	78.084
11060.000000	76.915
11200.000000	76.117
11380.000000	75.455
11500.000000	75.258
11720.000000	75.476
11800.000000	75.761
12060.000000	77.371
12200.000000	78.470
12410.000000	80.009
12500.000000	80.545
12650.000000	81.219
12800.000000	81.612
13150.000000	81.767
13200.000000	81.758
13400.000000	81.795
13600.000000	82.048
13800.000000	82.473
14000.000000	82.906
14300.000000	83.231
14500.000000	83.118
14750.000000	82.632
15000.000000	81.928
15250.000000	81.308
15500.000000	81.228
15750.000000	81.962
16000.000000	83.100
16250.000000	84.001
16500.000000	84.373
16750.000000	84.240
17000.000000	83.720
17250.000000	82.881
17500.000000	81.737
17750.000000	80.315
18000.000000	78.695
18250.000000	77.018
18500.000000	75.459
18750.000000	74.174
19000.000000	73.291
19250.000000	72.897
19500.000000	72.946
19750.000000	73.198
