* Measurement data measured by REW V5.20.4
* Source: Trace Arithmetic result A * B
* Format: Trace Arithmetic result A * B
* Dated: 14-Feb-2022 00:24:34
* REW Settings:
*  C-weighting compensation: Off
*  Target level: 75.0 dB
* Note: Trace Arithmetic A times B A = B60 L VSG B = VSG to Crin
* Measurement: B60 L VSG to Crin
* Smoothing: 1/24 octave
* Frequency Step: 1/48 octave
* Start Frequency: 20.000 Hz
*
* Freq(Hz)	SPL(dB)
20.000000	83.525
20.299999	83.709
20.600000	83.877
20.900000	84.029
21.200001	84.163
21.400000	84.244
21.799999	84.386
22.000000	84.449
22.400000	84.563
22.700001	84.639
23.000000	84.708
23.299999	84.773
23.600000	84.833
24.000000	84.908
24.299999	84.963
24.700001	85.036
25.000000	85.093
25.400000	85.173
25.799999	85.257
26.200001	85.344
26.500000	85.409
26.900000	85.494
27.200001	85.556
27.600000	85.636
28.000000	85.712
28.500000	85.802
29.000000	85.882
29.500000	85.948
30.000000	85.999
30.400000	86.030
30.700001	86.050
31.100000	86.075
31.500000	86.099
32.000000	86.132
32.500000	86.166
33.000000	86.201
33.500000	86.237
34.000000	86.274
34.500000	86.313
35.000000	86.354
35.500000	86.397
36.000000	86.443
36.500000	86.489
37.000000	86.537
37.500000	86.585
38.200001	86.649
38.700001	86.691
39.500000	86.745
40.000000	86.767
40.599998	86.779
41.200001	86.775
41.799999	86.756
42.500000	86.716
43.099998	86.671
43.700001	86.618
44.400002	86.551
45.000000	86.490
45.500000	86.434
46.200001	86.346
46.799999	86.261
47.500000	86.151
48.200001	86.032
48.700001	85.945
49.400002	85.823
50.000000	85.717
50.799999	85.570
51.500000	85.430
52.200001	85.278
53.000000	85.089
53.799999	84.891
54.500000	84.713
55.200001	84.536
56.000000	84.336
57.000000	84.090
58.000000	83.849
59.000000	83.613
60.000000	83.384
60.799999	83.208
61.500000	83.060
62.200001	82.920
63.000000	82.772
64.000000	82.609
65.000000	82.479
66.000000	82.393
67.000000	82.358
68.000000	82.383
69.000000	82.468
70.000000	82.609
71.000000	82.799
72.000000	83.026
73.000000	83.282
74.000000	83.558
75.000000	83.846
76.199997	84.201
77.500000	84.586
78.800003	84.962
80.000000	85.293
81.199997	85.603
82.500000	85.913
83.800003	86.192
85.000000	86.421
86.199997	86.623
87.500000	86.814
88.500000	86.942
90.000000	87.105
91.199997	87.210
92.500000	87.299
93.800003	87.363
95.000000	87.401
96.199997	87.422
97.500000	87.428
98.800003	87.420
100.000000	87.402
101.500000	87.368
103.000000	87.321
104.400002	87.269
106.000000	87.206
107.500000	87.148
109.000000	87.094
110.599998	87.041
112.000000	86.996
113.800003	86.942
115.000000	86.908
117.199997	86.849
118.000000	86.828
120.599998	86.757
122.000000	86.716
124.099998	86.648
125.000000	86.617
126.500000	86.561
128.000000	86.502
131.500000	86.352
132.000000	86.329
134.000000	86.230
136.000000	86.119
138.000000	85.998
140.000000	85.864
143.000000	85.643
145.000000	85.481
147.500000	85.265
150.000000	85.035
152.500000	84.791
155.000000	84.531
157.500000	84.253
160.000000	83.954
162.500000	83.633
165.000000	83.296
167.500000	82.947
170.000000	82.592
172.500000	82.234
175.000000	81.876
177.500000	81.521
180.000000	81.174
182.500000	80.835
185.000000	80.508
187.500000	80.191
190.000000	79.881
192.500000	79.571
195.000000	79.252
197.500000	78.919
200.000000	78.570
203.000000	78.135
206.000000	77.694
209.000000	77.266
212.000000	76.866
214.000000	76.622
218.000000	76.196
220.000000	76.013
224.000000	75.701
227.000000	75.509
230.000000	75.353
233.000000	75.237
236.000000	75.171
240.000000	75.169
243.000000	75.234
247.000000	75.402
250.000000	75.578
254.000000	75.859
258.000000	76.174
262.000000	76.503
265.000000	76.749
269.000000	77.070
272.000000	77.300
276.000000	77.592
280.000000	77.869
285.000000	78.199
290.000000	78.512
295.000000	78.809
300.000000	79.087
304.000000	79.292
307.000000	79.434
311.000000	79.606
315.000000	79.758
320.000000	79.919
325.000000	80.054
330.000000	80.173
335.000000	80.298
340.000000	80.459
345.000000	80.686
350.000000	80.992
355.000000	81.360
360.000000	81.743
365.000000	82.087
370.000000	82.356
375.000000	82.538
382.000000	82.662
387.000000	82.676
395.000000	82.611
400.000000	82.545
406.000000	82.478
412.000000	82.460
418.000000	82.507
425.000000	82.659
431.000000	82.900
437.000000	83.270
444.000000	83.828
450.000000	84.298
455.000000	84.590
462.000000	84.757
468.000000	84.674
475.000000	84.415
482.000000	84.130
487.000000	83.975
494.000000	83.852
500.000000	83.819
508.000000	83.846
515.000000	83.911
522.000000	84.000
530.000000	84.108
538.000000	84.195
545.000000	84.239
552.000000	84.250
560.000000	84.234
570.000000	84.198
580.000000	84.167
590.000000	84.159
600.000000	84.174
608.000000	84.195
615.000000	84.216
622.000000	84.237
630.000000	84.270
640.000000	84.340
650.000000	84.446
660.000000	84.563
670.000000	84.666
680.000000	84.787
690.000000	85.008
700.000000	85.326
710.000000	85.580
720.000000	85.589
730.000000	85.322
740.000000	84.931
750.000000	84.642
762.000000	84.593
775.000000	84.821
788.000000	85.153
800.000000	85.457
812.000000	85.733
825.000000	86.013
838.000000	86.287
850.000000	86.538
862.000000	86.770
875.000000	86.955
885.000000	87.026
900.000000	87.022
912.000000	86.956
925.000000	86.857
938.000000	86.749
950.000000	86.652
962.000000	86.569
975.000000	86.505
988.000000	86.463
1000.000000	86.442
1015.000000	86.438
1030.000000	86.468
1044.000000	86.536
1060.000000	86.660
1075.000000	86.806
1090.000000	86.960
1106.000000	87.110
1120.000000	87.210
1138.000000	87.282
1150.000000	87.299
1172.000000	87.292
1180.000000	87.287
1206.000000	87.315
1220.000000	87.389
1241.000000	87.598
1250.000000	87.712
1265.000000	87.909
1280.000000	88.092
1315.000000	88.402
1320.000000	88.433
1340.000000	88.518
1360.000000	88.549
1380.000000	88.544
1400.000000	88.535
1430.000000	88.574
1450.000000	88.654
1475.000000	88.807
1500.000000	89.020
1525.000000	89.335
1550.000000	89.788
1575.000000	90.317
1600.000000	90.779
1625.000000	91.055
1650.000000	91.137
1675.000000	91.130
1700.000000	91.157
1725.000000	91.244
1750.000000	91.331
1775.000000	91.357
1800.000000	91.331
1825.000000	91.334
1850.000000	91.470
1875.000000	91.774
1900.000000	92.192
1925.000000	92.646
1950.000000	93.097
1975.000000	93.546
2000.000000	94.002
2030.000000	94.564
2060.000000	95.124
2090.000000	95.646
2120.000000	96.089
2140.000000	96.325
2180.000000	96.643
2200.000000	96.731
2240.000000	96.796
2270.000000	96.787
2300.000000	96.775
2330.000000	96.791
2360.000000	96.841
2400.000000	96.918
2430.000000	96.953
2470.000000	96.973
2500.000000	96.984
2540.000000	96.992
2580.000000	96.962
2620.000000	96.863
2650.000000	96.740
2690.000000	96.517
2720.000000	96.306
2760.000000	95.966
2800.000000	95.581
2850.000000	95.172
2900.000000	95.041
2950.000000	95.206
3000.000000	95.454
3040.000000	95.564
3070.000000	95.565
3110.000000	95.470
3150.000000	95.314
3200.000000	95.129
3250.000000	95.024
3300.000000	94.995
3350.000000	95.001
3400.000000	94.997
3450.000000	94.961
3500.000000	94.892
3550.000000	94.808
3600.000000	94.730
3650.000000	94.677
3700.000000	94.652
3750.000000	94.624
3820.000000	94.480
3870.000000	94.249
3950.000000	93.652
4000.000000	93.172
4060.000000	92.527
4120.000000	91.847
4180.000000	91.185
4250.000000	90.511
4310.000000	90.053
4370.000000	89.703
4440.000000	89.394
4500.000000	89.173
4550.000000	88.992
4620.000000	88.714
4680.000000	88.437
4750.000000	88.064
4820.000000	87.647
4870.000000	87.330
4940.000000	86.879
5000.000000	86.505
5080.000000	86.064
5150.000000	85.785
5220.000000	85.663
5300.000000	85.785
5380.000000	86.202
5450.000000	86.747
5520.000000	87.355
5600.000000	88.012
5700.000000	88.670
5800.000000	89.110
5900.000000	89.353
6000.000000	89.456
6080.000000	89.485
6150.000000	89.497
6220.000000	89.510
6300.000000	89.539
6400.000000	89.591
6500.000000	89.621
6600.000000	89.567
6700.000000	89.386
6800.000000	89.080
6900.000000	88.692
7000.000000	88.286
7100.000000	87.938
7200.000000	87.722
7300.000000	87.707
7400.000000	87.941
7500.000000	88.419
7620.000000	89.208
7750.000000	90.111
7880.000000	90.875
8000.000000	91.391
8120.000000	91.712
8250.000000	91.827
8380.000000	91.689
8500.000000	91.346
8620.000000	90.826
8750.000000	90.097
8850.000000	89.451
9000.000000	88.468
9120.000000	87.870
9250.000000	87.623
9380.000000	87.803
9500.000000	88.189
9620.000000	88.615
9750.000000	88.972
9880.000000	89.112
10000.000000	88.996
10150.000000	88.516
10300.000000	87.724
10440.000000	86.779
10600.000000	85.523
10750.000000	84.198
10900.000000	82.733
11060.000000	81.044
11200.000000	79.524
11380.000000	77.665
11500.000000	76.591
11720.000000	75.237
11800.000000	75.000
12060.000000	75.202
12200.000000	75.737
12410.000000	76.657
12500.000000	77.007
12650.000000	77.485
12800.000000	77.848
13150.000000	78.713
13200.000000	78.891
13400.000000	79.821
13600.000000	81.043
13800.000000	82.367
14000.000000	83.561
14300.000000	84.737
14500.000000	84.988
14750.000000	84.714
15000.000000	83.947
15250.000000	83.008
15500.000000	82.412
15750.000000	82.549
16000.000000	83.120
16250.000000	83.487
16500.000000	83.319
16750.000000	82.611
17000.000000	81.476
17250.000000	80.000
17500.000000	78.221
17750.000000	76.189
18000.000000	74.013
18250.000000	71.880
18500.000000	70.031
18750.000000	68.693
19000.000000	68.009
19250.000000	67.999
19500.000000	68.474
19750.000000	69.054
