* Measurement data measured by REW V5.20
* Source: USB-C to 3.5mm Headphone Jack Adapter, USB-C to 3.5mm Headphone Jack Adapter, 0, volume: 0.138
* Format: 256k Log Swept Sine, 1 sweep at -12.0 dBFS with no timing reference
* Dated: Apr 14, 2022 4:13:19 PM
* REW Settings:
*  C-weighting compensation: Off
*  Target level: 75.0 dB
* Note: ; 
* Measurement: Vent - Tanch - L
* Smoothing: None
* Frequency Step: 1/48 octave
* Start Frequency: 20.300 Hz
*
* Freq(Hz)	SPL(dB)	Phase(degrees)
20.299999	102.925957	-152.8065
20.600000	102.911674	-153.5051
20.900000	102.884865	-154.0359
21.200001	102.860832	-154.5201
21.400000	102.849480	-154.8557
21.799999	102.833969	-155.6259
22.000000	102.826012	-156.0669
22.400000	102.802032	-157.0010
22.700001	102.775726	-157.6447
23.000000	102.749695	-158.1510
23.299999	102.736206	-158.4801
23.600000	102.747879	-158.6566
24.000000	102.812698	-158.8159
24.299999	102.888977	-159.0278
24.700001	102.995621	-159.5769
25.000000	103.053558	-160.1808
25.400000	103.078857	-161.1139
25.799999	103.047699	-161.9850
26.200001	102.990997	-162.6574
26.500000	102.955490	-163.0460
26.900000	102.936653	-163.5401
27.200001	102.943787	-163.9840
27.600000	102.963715	-164.7244
28.000000	102.973892	-165.5597
28.500000	102.957695	-166.4958
29.000000	102.928223	-167.1325
29.500000	102.913010	-167.5762
30.000000	102.912392	-168.1006
30.400000	102.906738	-168.6625
30.700001	102.893051	-169.1350
31.100000	102.863708	-169.7496
31.500000	102.832878	-170.2698
32.000000	102.811302	-170.7746
32.500000	102.812881	-171.2160
33.000000	102.817970	-171.6987
33.500000	102.803711	-172.2222
34.000000	102.766495	-172.7181
34.500000	102.724220	-173.1673
35.000000	102.697647	-173.6583
35.500000	102.687141	-174.2907
36.000000	102.673355	-175.0024
36.500000	102.645569	-175.5457
37.000000	102.624596	-175.7039
37.500000	102.642647	-175.5613
38.200001	102.709686	-175.5331
38.700001	102.710472	-175.8551
39.500000	102.578575	-176.3103
40.000000	102.509499	-176.3646
40.599998	102.528534	-176.7756
41.200001	102.587051	-177.9806
41.799999	102.577675	-179.4164
42.500000	102.496445	179.7566
43.099998	102.463051	179.7377
43.700001	102.462212	179.6137
44.400002	102.417122	179.0644
45.000000	102.341263	178.6156
45.500000	102.297569	178.3561
46.200001	102.283432	177.9666
46.799999	102.274010	177.5534
47.500000	102.235214	177.1651
48.200001	102.189064	176.8819
48.700001	102.160690	176.6362
49.400002	102.121613	176.2220
50.000000	102.090324	175.9038
50.799999	102.060074	175.5635
51.500000	102.033798	175.2575
52.200001	101.994843	174.9364
53.000000	101.942688	174.6058
53.799999	101.897964	174.2878
54.500000	101.861824	173.9609
55.200001	101.817917	173.6202
56.000000	101.765808	173.3221
57.000000	101.719559	173.0104
58.000000	101.680779	172.6940
59.000000	101.667801	172.2161
60.000000	101.610191	171.5069
60.799999	101.543442	171.4296
61.500000	101.537369	171.5329
62.200001	101.538864	171.3686
63.000000	101.491150	171.0659
64.000000	101.416557	170.7295
65.000000	101.321152	170.2936
66.000000	101.249161	170.2311
67.000000	101.233337	169.9510
68.000000	101.172089	169.5760
69.000000	101.120064	169.4280
70.000000	101.077209	169.2052
71.000000	101.024773	169.0049
72.000000	100.976051	168.7924
73.000000	100.926407	168.5789
74.000000	100.875854	168.4099
75.000000	100.826492	168.2452
76.199997	100.766617	168.0277
77.500000	100.706650	167.8144
78.800003	100.642838	167.6046
80.000000	100.585022	167.4039
81.199997	100.519226	167.2191
82.500000	100.455360	167.0682
83.800003	100.394409	166.9030
85.000000	100.333801	166.7676
86.199997	100.274002	166.6211
87.500000	100.210274	166.4872
88.500000	100.156563	166.3757
90.000000	100.073685	166.2390
91.199997	100.011719	166.1017
92.500000	99.940544	166.0321
93.800003	99.866173	165.9507
95.000000	99.800163	165.8868
96.199997	99.722847	165.8476
97.500000	99.634300	165.8090
98.800003	99.549431	165.7122
100.000000	99.464386	165.8202
101.500000	99.352531	165.9509
103.000000	99.228844	166.0840
104.400002	99.109474	166.3459
106.000000	98.945587	166.9230
107.500000	98.804489	167.5269
109.000000	98.712944	168.8332
110.599998	98.635193	170.4097
112.000000	98.707939	171.8611
113.800003	98.920815	173.4886
115.000000	98.963478	173.3829
117.199997	99.254608	173.5063
118.000000	99.209335	174.6115
120.599998	98.910583	168.3572
122.000000	99.722702	172.0043
124.099998	99.478378	171.1782
125.000000	99.493958	170.4098
126.500000	99.472221	170.6908
128.000000	99.374710	169.9514
131.500000	99.224419	169.4918
132.000000	99.201401	169.4786
134.000000	99.114044	169.8194
136.000000	99.041885	170.2604
138.000000	99.033493	170.9769
140.000000	99.085037	171.5014
143.000000	99.250908	171.3643
145.000000	99.289429	170.7684
147.500000	99.273758	170.0317
150.000000	99.212067	169.5315
152.500000	99.142662	169.1845
155.000000	99.070587	168.9666
157.500000	98.999466	168.8405
160.000000	98.928314	168.7586
162.500000	98.865501	168.7328
165.000000	98.805672	168.7593
167.500000	98.742134	168.7684
170.000000	98.692154	168.8169
172.500000	98.632179	168.8429
175.000000	98.583946	168.9761
177.500000	98.536804	169.0383
180.000000	98.473801	169.1788
182.500000	98.437759	169.2427
185.000000	98.394051	169.3938
187.500000	98.354675	169.5457
190.000000	98.319862	169.6697
192.500000	98.286072	169.7827
195.000000	98.249237	169.8979
197.500000	98.219109	170.0017
200.000000	98.179504	170.1116
203.000000	98.138153	170.2525
206.000000	98.095924	170.4004
209.000000	98.054153	170.5602
212.000000	98.014107	170.7212
214.000000	97.986839	170.8386
218.000000	97.935829	171.0677
220.000000	97.911118	171.1823
224.000000	97.861351	171.4303
227.000000	97.825455	171.6298
230.000000	97.789749	171.8413
233.000000	97.755783	172.0709
236.000000	97.727821	172.3388
240.000000	97.706474	173.0350
243.000000	97.694344	172.9130
247.000000	97.676170	173.1150
250.000000	97.656281	173.2109
254.000000	97.629776	173.3951
258.000000	97.598167	173.5653
262.000000	97.568031	173.7589
265.000000	97.544716	173.9256
269.000000	97.512527	174.1221
272.000000	97.490692	174.2726
276.000000	97.458740	174.4754
280.000000	97.433380	174.7198
285.000000	97.394722	174.9921
290.000000	97.362602	175.2924
295.000000	97.326637	175.5724
300.000000	97.300392	175.7353
304.000000	97.272987	176.1291
307.000000	97.257088	176.3235
311.000000	97.236244	176.5486
315.000000	97.217972	176.8144
320.000000	97.198975	177.0859
325.000000	97.176056	177.3493
330.000000	97.154663	177.6421
335.000000	97.131065	177.8735
340.000000	97.110977	178.1385
345.000000	97.088074	178.4285
350.000000	97.063103	178.6966
355.000000	97.041969	178.9607
360.000000	97.023247	179.1856
365.000000	97.004379	179.5239
370.000000	96.982986	179.8065
375.000000	96.965820	-179.9328
382.000000	96.941498	-179.5425
387.000000	96.924194	-179.2639
395.000000	96.898239	-178.8336
400.000000	96.884094	-178.5612
406.000000	96.862465	-178.2293
412.000000	96.845490	-177.8859
418.000000	96.831421	-177.5878
425.000000	96.812531	-177.1852
431.000000	96.795944	-176.8716
437.000000	96.780594	-176.5439
444.000000	96.764244	-176.1687
450.000000	96.750931	-175.8334
455.000000	96.741562	-175.5779
462.000000	96.724602	-175.1772
468.000000	96.713669	-174.8683
475.000000	96.699570	-174.4942
482.000000	96.685425	-174.1221
487.000000	96.676811	-173.8399
494.000000	96.666016	-173.4601
500.000000	96.656525	-173.1381
508.000000	96.645248	-172.7145
515.000000	96.632759	-172.3087
522.000000	96.623581	-171.9493
530.000000	96.614265	-171.5164
538.000000	96.602478	-171.0819
545.000000	96.594612	-170.6955
552.000000	96.588570	-170.3134
560.000000	96.578888	-169.8820
570.000000	96.572556	-169.3340
580.000000	96.562263	-168.7849
590.000000	96.554367	-168.2319
600.000000	96.553482	-167.7165
608.000000	96.545624	-167.2342
615.000000	96.542999	-166.8541
622.000000	96.541473	-166.4417
630.000000	96.540863	-166.0020
640.000000	96.540924	-165.4479
650.000000	96.539391	-164.8726
660.000000	96.542786	-164.3604
670.000000	96.540466	-163.7388
680.000000	96.543991	-163.1558
690.000000	96.549622	-162.5739
700.000000	96.557632	-161.9841
710.000000	96.564613	-161.4048
720.000000	96.576447	-160.8027
730.000000	96.587921	-160.2194
740.000000	96.597214	-159.5967
750.000000	96.613487	-159.0083
762.000000	96.633110	-158.2801
775.000000	96.660172	-157.4943
788.000000	96.686401	-156.7038
800.000000	96.715195	-155.9654
812.000000	96.746658	-155.2198
825.000000	96.787498	-154.4234
838.000000	96.832413	-153.6237
850.000000	96.880722	-152.8980
862.000000	96.930992	-152.1491
875.000000	96.990654	-151.3945
885.000000	97.044594	-150.8155
900.000000	97.150948	-150.0003
912.000000	97.220627	-149.5901
925.000000	97.270538	-149.2890
938.000000	97.305969	-148.9277
950.000000	97.267342	-148.7328
962.000000	97.170296	-147.5025
975.000000	97.257790	-145.7681
988.000000	97.402496	-144.6866
1000.000000	97.528641	-143.9591
1015.000000	97.671730	-143.1949
1030.000000	97.806908	-142.4700
1044.000000	97.929115	-141.8745
1060.000000	98.073303	-141.2470
1075.000000	98.201820	-140.6729
1090.000000	98.334290	-140.1696
1106.000000	98.475777	-139.6664
1120.000000	98.595123	-139.2975
1138.000000	98.749626	-138.8516
1150.000000	98.852020	-138.5795
1172.000000	99.034927	-138.1870
1180.000000	99.096634	-138.0327
1206.000000	99.303871	-137.6823
1220.000000	99.407784	-137.5144
1241.000000	99.564240	-137.3006
1250.000000	99.625046	-137.2392
1265.000000	99.727776	-137.1236
1280.000000	99.831177	-137.0157
1315.000000	100.048782	-136.8298
1320.000000	100.074791	-136.8033
1340.000000	100.193695	-136.7023
1360.000000	100.305565	-136.6371
1380.000000	100.417290	-136.5288
1400.000000	100.517822	-136.4513
1430.000000	100.666458	-136.3227
1450.000000	100.761917	-136.2395
1475.000000	100.879150	-136.1101
1500.000000	100.993279	-136.0055
1525.000000	101.104378	-135.8678
1550.000000	101.215179	-135.7364
1575.000000	101.323730	-135.5941
1600.000000	101.432899	-135.4479
1625.000000	101.541122	-135.3119
1650.000000	101.650513	-135.1682
1675.000000	101.758041	-135.0309
1700.000000	101.868408	-134.8957
1725.000000	101.978966	-134.7638
1750.000000	102.090363	-134.6389
1775.000000	102.202629	-134.5264
1800.000000	102.315674	-134.4320
1825.000000	102.428940	-134.3426
1850.000000	102.543320	-134.2686
1875.000000	102.656769	-134.2259
1900.000000	102.772202	-134.1874
1925.000000	102.886566	-134.1694
1950.000000	103.004677	-134.1734
1975.000000	103.120247	-134.1996
2000.000000	103.237358	-134.2412
2030.000000	103.373993	-134.3228
2060.000000	103.513489	-134.4455
2090.000000	103.653542	-134.6323
2120.000000	103.790657	-134.8586
2140.000000	103.876495	-135.0403
2180.000000	104.046120	-135.4429
2200.000000	104.125893	-135.6759
2240.000000	104.280014	-136.1497
2270.000000	104.388878	-136.5282
2300.000000	104.493027	-136.9450
2330.000000	104.590660	-137.3705
2360.000000	104.683105	-137.8163
2400.000000	104.797562	-138.4348
2430.000000	104.878098	-138.9037
2470.000000	104.974754	-139.5532
2500.000000	105.040543	-140.0382
2540.000000	105.120323	-140.6974
2580.000000	105.188110	-141.3479
2620.000000	105.246864	-141.9968
2650.000000	105.283974	-142.4659
2690.000000	105.329399	-143.0755
2720.000000	105.357811	-143.5016
2760.000000	105.390327	-144.0890
2800.000000	105.417366	-144.6546
2850.000000	105.440887	-145.3319
2900.000000	105.451614	-145.9686
2950.000000	105.454590	-146.5558
3000.000000	105.450500	-147.0960
3040.000000	105.442085	-147.4791
3070.000000	105.435410	-147.7404
3110.000000	105.421555	-148.0803
3150.000000	105.408340	-148.3829
3200.000000	105.387650	-148.7220
3250.000000	105.365372	-149.0346
3300.000000	105.338577	-149.3057
3350.000000	105.308426	-149.5289
3400.000000	105.276443	-149.7169
3450.000000	105.243225	-149.8464
3500.000000	105.212311	-149.9132
3550.000000	105.187714	-149.9338
3600.000000	105.168915	-149.9272
3650.000000	105.155319	-149.9480
3700.000000	105.144318	-149.9734
3750.000000	105.132156	-150.0166
3820.000000	105.114075	-150.0716
3870.000000	105.100533	-150.1019
3950.000000	105.083382	-150.1536
4000.000000	105.073959	-150.2048
4060.000000	105.061104	-150.2743
4120.000000	105.043533	-150.3553
4180.000000	105.022057	-150.4335
4250.000000	104.992859	-150.5056
4310.000000	104.969978	-150.5617
4370.000000	104.944763	-150.5956
4440.000000	104.916969	-150.6513
4500.000000	104.892387	-150.6779
4550.000000	104.874138	-150.7238
4620.000000	104.845016	-150.7787
4680.000000	104.821167	-150.8168
4750.000000	104.791832	-150.8829
4820.000000	104.762733	-150.9529
4870.000000	104.743256	-150.9914
4940.000000	104.716644	-151.0682
5000.000000	104.693726	-151.1381
5080.000000	104.664993	-151.2589
5150.000000	104.640717	-151.3624
5220.000000	104.617401	-151.5191
5300.000000	104.593681	-151.7117
5380.000000	104.569374	-151.9802
5450.000000	104.547119	-152.2470
5520.000000	104.521881	-152.5793
5600.000000	104.485153	-153.0199
5700.000000	104.421989	-153.6307
5800.000000	104.340271	-154.2421
5900.000000	104.239960	-154.8063
6000.000000	104.128471	-155.3047
6080.000000	104.031570	-155.6053
6150.000000	103.947922	-155.8091
6220.000000	103.868385	-155.9251
6300.000000	103.797729	-155.9107
6400.000000	103.749634	-156.0495
6500.000000	103.688553	-156.3200
6600.000000	103.629425	-156.5236
6700.000000	103.591614	-156.6450
6800.000000	103.571968	-156.7858
6900.000000	103.579292	-156.9176
7000.000000	103.612564	-157.0829
7100.000000	103.683182	-157.3148
7200.000000	103.798294	-157.6468
7300.000000	103.952202	-158.2268
7400.000000	104.134666	-159.1071
7500.000000	104.344917	-160.2488
7620.000000	104.640099	-162.0654
7750.000000	105.011612	-164.7080
7880.000000	105.443100	-168.3163
8000.000000	105.877762	-172.8850
8120.000000	106.288742	-179.1481
8250.000000	106.561325	171.7757
8380.000000	106.414978	160.7532
8500.000000	105.777435	150.2864
8620.000000	104.689438	141.1522
8750.000000	103.198586	133.9193
8850.000000	101.979630	130.3232
9000.000000	100.190407	127.5188
9120.000000	98.855515	126.9259
9250.000000	97.525711	127.3973
9380.000000	96.294388	128.8165
9500.000000	95.251968	130.7551
9620.000000	94.281479	133.1763
9750.000000	93.322929	136.4109
9880.000000	92.396431	140.2054
10000.000000	91.654846	144.3027
10150.000000	90.850571	150.3839
10300.000000	90.237129	157.6030
10440.000000	89.940796	165.2305
10600.000000	90.113266	174.1592
10750.000000	90.786995	-179.0057
10900.000000	91.795120	-175.4935
11060.000000	92.838203	-176.2970
11200.000000	93.444710	-179.5116
11380.000000	93.722740	175.3787
11500.000000	93.672661	172.3156
11720.000000	93.350601	168.3323
11800.000000	93.230362	167.4014
12060.000000	92.846832	165.2509
12200.000000	92.710358	164.5354
12410.000000	92.597900	163.6370
12500.000000	92.590103	163.1573
12650.000000	92.647461	162.4620
12800.000000	92.768890	161.4540
13150.000000	93.354042	158.1750
13200.000000	93.476540	157.5682
13400.000000	94.058411	154.5086
13600.000000	94.816696	150.5005
13800.000000	95.787758	145.0600
14000.000000	96.966362	137.8147
14300.000000	99.217514	122.5616
14500.000000	101.079536	107.1741
14750.000000	103.315857	77.9391
15000.000000	103.993347	38.2209
15250.000000	102.528290	1.1750
15500.000000	100.497131	-27.4706
15750.000000	98.718826	-51.5732
16000.000000	97.299606	-74.6522
16250.000000	96.123245	-98.5393
16500.000000	95.020233	-123.8577
16750.000000	93.872604	-150.7740
17000.000000	92.603920	-179.0122
17250.000000	91.167549	151.8201
17500.000000	89.624977	122.0062
17750.000000	88.043831	91.3015
18000.000000	86.454544	59.5669
18250.000000	84.967773	26.0552
18500.000000	83.557770	-10.1099
18750.000000	82.228867	-50.3084
19000.000000	81.031418	-95.9153
19250.000000	79.850830	-148.4910
19500.000000	78.468575	149.4087
19750.000000	76.628777	75.9363
