* Measurement data measured by REW V5.20.4
* Source: Trace Arithmetic result Merge B to A
* Format: Trace Arithmetic result Merge B to A
* Dated: 24-Apr-2022 20:11:56
* REW Settings:
*  C-weighting compensation: Off
*  Target level: 75.0 dB
* Note: Trace Arithmetic B to A at 1,000 Hz A = A times B B = TX-901 L VSG B was scaled by 111.3 dB
* Measurement: TX-901 L VSG to Crin
* Smoothing: 1/24 octave
* Frequency Step: 1/48 octave
* Start Frequency: 20.000 Hz
*
* Freq(Hz)	SPL(dB)
20.000000	78.071
20.299999	78.142
20.600000	78.209
20.900000	78.272
21.200001	78.330
21.400000	78.367
21.799999	78.434
22.000000	78.465
22.400000	78.522
22.700001	78.562
23.000000	78.599
23.299999	78.633
23.600000	78.664
24.000000	78.701
24.299999	78.726
24.700001	78.755
25.000000	78.775
25.400000	78.800
25.799999	78.825
26.200001	78.848
26.500000	78.866
26.900000	78.887
27.200001	78.902
27.600000	78.920
28.000000	78.935
28.500000	78.951
29.000000	78.963
29.500000	78.970
30.000000	78.974
30.400000	78.976
30.700001	78.978
31.100000	78.980
31.500000	78.980
32.000000	78.977
32.500000	78.970
33.000000	78.960
33.500000	78.948
34.000000	78.935
34.500000	78.920
35.000000	78.904
35.500000	78.888
36.000000	78.870
36.500000	78.852
37.000000	78.834
37.500000	78.816
38.200001	78.791
38.700001	78.775
39.500000	78.750
40.000000	78.734
40.599998	78.714
41.200001	78.693
41.799999	78.672
42.500000	78.649
43.099998	78.632
43.700001	78.616
44.400002	78.599
45.000000	78.585
45.500000	78.576
46.200001	78.566
46.799999	78.559
47.500000	78.550
48.200001	78.540
48.700001	78.531
49.400002	78.516
50.000000	78.503
50.799999	78.485
51.500000	78.469
52.200001	78.453
53.000000	78.437
53.799999	78.420
54.500000	78.405
55.200001	78.390
56.000000	78.374
57.000000	78.353
58.000000	78.333
59.000000	78.315
60.000000	78.298
60.799999	78.285
61.500000	78.274
62.200001	78.263
63.000000	78.252
64.000000	78.241
65.000000	78.233
66.000000	78.225
67.000000	78.219
68.000000	78.213
69.000000	78.208
70.000000	78.203
71.000000	78.198
72.000000	78.191
73.000000	78.182
74.000000	78.173
75.000000	78.164
76.199997	78.155
77.500000	78.147
78.800003	78.139
80.000000	78.131
81.199997	78.123
82.500000	78.114
83.800003	78.103
85.000000	78.093
86.199997	78.084
87.500000	78.077
88.500000	78.073
90.000000	78.069
91.199997	78.066
92.500000	78.063
93.800003	78.060
95.000000	78.057
96.199997	78.055
97.500000	78.052
98.800003	78.050
100.000000	78.049
101.500000	78.046
103.000000	78.043
104.400002	78.040
106.000000	78.038
107.500000	78.036
109.000000	78.035
110.599998	78.034
112.000000	78.034
113.800003	78.036
115.000000	78.037
117.199997	78.043
118.000000	78.045
120.599998	78.056
122.000000	78.064
124.099998	78.078
125.000000	78.085
126.500000	78.099
128.000000	78.113
131.500000	78.150
132.000000	78.156
134.000000	78.176
136.000000	78.196
138.000000	78.213
140.000000	78.228
143.000000	78.244
145.000000	78.252
147.500000	78.261
150.000000	78.271
152.500000	78.283
155.000000	78.296
157.500000	78.310
160.000000	78.325
162.500000	78.339
165.000000	78.353
167.500000	78.369
170.000000	78.387
172.500000	78.407
175.000000	78.427
177.500000	78.449
180.000000	78.472
182.500000	78.496
185.000000	78.522
187.500000	78.548
190.000000	78.573
192.500000	78.595
195.000000	78.613
197.500000	78.624
200.000000	78.628
203.000000	78.621
206.000000	78.592
209.000000	78.532
212.000000	78.431
214.000000	78.338
218.000000	78.089
220.000000	77.940
224.000000	77.622
227.000000	77.397
230.000000	77.208
233.000000	77.068
236.000000	76.975
240.000000	76.909
243.000000	76.884
247.000000	76.860
250.000000	76.836
254.000000	76.786
258.000000	76.718
262.000000	76.640
265.000000	76.587
269.000000	76.537
272.000000	76.521
276.000000	76.532
280.000000	76.578
285.000000	76.671
290.000000	76.788
295.000000	76.916
300.000000	77.049
304.000000	77.156
307.000000	77.234
311.000000	77.334
315.000000	77.425
320.000000	77.528
325.000000	77.619
330.000000	77.703
335.000000	77.787
340.000000	77.872
345.000000	77.960
350.000000	78.053
355.000000	78.151
360.000000	78.254
365.000000	78.360
370.000000	78.466
375.000000	78.564
382.000000	78.665
387.000000	78.692
395.000000	78.601
400.000000	78.425
406.000000	78.093
412.000000	77.701
418.000000	77.382
425.000000	77.230
431.000000	77.287
437.000000	77.453
444.000000	77.701
450.000000	77.919
455.000000	78.092
462.000000	78.318
468.000000	78.495
475.000000	78.673
482.000000	78.810
487.000000	78.876
494.000000	78.927
500.000000	78.942
508.000000	78.914
515.000000	78.795
522.000000	78.514
530.000000	77.945
538.000000	77.206
545.000000	76.622
552.000000	76.285
560.000000	76.256
570.000000	76.523
580.000000	76.815
590.000000	77.005
600.000000	77.150
608.000000	77.305
615.000000	77.489
622.000000	77.711
630.000000	77.989
640.000000	78.331
650.000000	78.633
660.000000	78.880
670.000000	79.078
680.000000	79.243
690.000000	79.412
700.000000	79.627
710.000000	79.915
720.000000	80.266
730.000000	80.659
740.000000	81.086
750.000000	81.552
762.000000	82.160
775.000000	82.842
788.000000	83.475
800.000000	83.924
812.000000	84.118
825.000000	83.835
838.000000	82.836
850.000000	81.253
862.000000	79.268
875.000000	77.281
885.000000	76.338
900.000000	75.986
912.000000	76.223
925.000000	76.683
938.000000	77.215
950.000000	77.681
962.000000	78.054
975.000000	78.308
988.000000	78.410
1000.000000	78.433
1015.000000	78.493
1030.000000	78.649
1044.000000	78.829
1060.000000	78.997
1075.000000	79.134
1090.000000	79.353
1106.000000	79.743
1120.000000	80.154
1138.000000	80.636
1150.000000	80.886
1172.000000	81.199
1180.000000	81.276
1206.000000	81.456
1220.000000	81.533
1241.000000	81.617
1250.000000	81.634
1265.000000	81.635
1280.000000	81.628
1315.000000	81.636
1320.000000	81.623
1340.000000	81.449
1360.000000	81.043
1380.000000	80.483
1400.000000	79.953
1430.000000	79.474
1450.000000	79.361
1475.000000	79.343
1500.000000	79.348
1525.000000	79.331
1550.000000	79.337
1575.000000	79.392
1600.000000	79.399
1625.000000	79.184
1650.000000	78.676
1675.000000	78.017
1700.000000	77.487
1725.000000	77.203
1750.000000	77.042
1775.000000	76.841
1800.000000	76.525
1825.000000	76.103
1850.000000	75.706
1875.000000	75.612
1900.000000	76.133
1925.000000	77.282
1950.000000	78.685
1975.000000	79.913
2000.000000	80.729
2030.000000	81.135
2060.000000	81.123
2090.000000	80.994
2120.000000	80.907
2140.000000	80.841
2180.000000	80.487
2200.000000	80.158
2240.000000	79.272
2270.000000	78.559
2300.000000	77.951
2330.000000	77.527
2360.000000	77.291
2400.000000	77.142
2430.000000	77.038
2470.000000	76.804
2500.000000	76.548
2540.000000	76.154
2580.000000	75.813
2620.000000	75.609
2650.000000	75.529
2690.000000	75.455
2720.000000	75.386
2760.000000	75.249
2800.000000	75.075
2850.000000	75.000
2900.000000	75.403
2950.000000	76.278
3000.000000	77.292
3040.000000	78.048
3070.000000	78.554
3110.000000	79.120
3150.000000	79.521
3200.000000	79.734
3250.000000	79.633
3300.000000	79.283
3350.000000	78.762
3400.000000	78.145
3450.000000	77.508
3500.000000	76.921
3550.000000	76.421
3600.000000	75.999
3650.000000	75.644
3700.000000	75.378
3750.000000	75.229
3820.000000	75.191
3870.000000	75.247
3950.000000	75.475
4000.000000	75.686
4060.000000	75.971
4120.000000	76.291
4180.000000	76.673
4250.000000	77.189
4310.000000	77.681
4370.000000	78.255
4440.000000	79.051
4500.000000	79.774
4550.000000	80.331
4620.000000	80.951
4680.000000	81.296
4750.000000	81.468
4820.000000	81.387
4870.000000	81.172
4940.000000	80.671
5000.000000	80.095
5080.000000	79.202
5150.000000	78.390
5220.000000	77.632
5300.000000	76.931
5380.000000	76.500
5450.000000	76.365
5520.000000	76.397
5600.000000	76.518
5700.000000	76.641
5800.000000	76.656
5900.000000	76.577
6000.000000	76.480
6080.000000	76.456
6150.000000	76.516
6220.000000	76.671
6300.000000	76.966
6400.000000	77.456
6500.000000	77.965
6600.000000	78.357
6700.000000	78.535
6800.000000	78.474
6900.000000	78.219
7000.000000	77.865
7100.000000	77.521
7200.000000	77.286
7300.000000	77.247
7400.000000	77.454
7500.000000	77.885
7620.000000	78.552
7750.000000	79.221
7880.000000	79.687
8000.000000	79.956
8120.000000	80.155
8250.000000	80.339
8380.000000	80.438
8500.000000	80.361
8620.000000	80.062
8750.000000	79.468
8850.000000	78.840
9000.000000	77.756
9120.000000	76.980
9250.000000	76.479
9380.000000	76.416
9500.000000	76.655
9620.000000	77.035
9750.000000	77.458
9880.000000	77.761
10000.000000	77.846
10150.000000	77.629
10300.000000	77.042
10440.000000	76.172
10600.000000	74.795
10750.000000	73.119
10900.000000	71.088
11060.000000	68.670
11200.000000	66.663
11380.000000	65.100
11500.000000	65.042
11720.000000	66.353
11800.000000	67.033
12060.000000	69.357
12200.000000	70.497
12410.000000	71.830
12500.000000	72.215
12650.000000	72.558
12800.000000	72.488
13150.000000	70.657
13200.000000	70.217
13400.000000	68.100
13600.000000	65.625
13800.000000	63.345
14000.000000	62.160
14300.000000	62.437
14500.000000	62.672
14750.000000	62.239
15000.000000	61.074
15250.000000	59.884
15500.000000	60.076
15750.000000	62.234
16000.000000	65.104
16250.000000	67.507
16500.000000	68.986
16750.000000	69.499
17000.000000	69.199
17250.000000	68.310
17500.000000	67.057
17750.000000	65.601
18000.000000	64.039
18250.000000	62.442
18500.000000	60.853
18750.000000	59.266
19000.000000	57.670
19250.000000	56.107
19500.000000	54.667
19750.000000	53.469
