* Measurement data measured by REW V5.20.4
* Source: Trace Arithmetic result Merge B to A
* Format: Trace Arithmetic result Merge B to A
* Dated: 30-Mar-2022 22:38:06
* REW Settings:
*  C-weighting compensation: Off
*  Target level: 75.0 dB
* Note: Trace Arithmetic B to A at 1,000 Hz A = HE-R10D R VSG to Crin B = HE-R10D R VSG B was scaled by 111.3 dB
* Measurement: HE-R10D R VSG to Crin
* Smoothing: 1/24 octave
* Frequency Step: 1/48 octave
* Start Frequency: 20.000 Hz
*
* Freq(Hz)	SPL(dB)
20.000000	83.522
20.299999	83.632
20.600000	83.738
20.900000	83.841
21.200001	83.941
21.400000	84.005
21.799999	84.129
22.000000	84.188
22.400000	84.302
22.700001	84.382
23.000000	84.460
23.299999	84.533
23.600000	84.604
24.000000	84.694
24.299999	84.758
24.700001	84.841
25.000000	84.901
25.400000	84.979
25.799999	85.055
26.200001	85.130
26.500000	85.185
26.900000	85.260
27.200001	85.315
27.600000	85.390
28.000000	85.464
28.500000	85.557
29.000000	85.647
29.500000	85.735
30.000000	85.819
30.400000	85.885
30.700001	85.934
31.100000	85.998
31.500000	86.061
32.000000	86.141
32.500000	86.221
33.000000	86.302
33.500000	86.384
34.000000	86.465
34.500000	86.546
35.000000	86.623
35.500000	86.697
36.000000	86.765
36.500000	86.826
37.000000	86.879
37.500000	86.925
38.200001	86.978
38.700001	87.008
39.500000	87.045
40.000000	87.063
40.599998	87.078
41.200001	87.088
41.799999	87.093
42.500000	87.091
43.099998	87.083
43.700001	87.071
44.400002	87.052
45.000000	87.034
45.500000	87.017
46.200001	86.993
46.799999	86.971
47.500000	86.947
48.200001	86.923
48.700001	86.906
49.400002	86.883
50.000000	86.864
50.799999	86.839
51.500000	86.818
52.200001	86.796
53.000000	86.771
53.799999	86.746
54.500000	86.725
55.200001	86.704
56.000000	86.684
57.000000	86.664
58.000000	86.652
59.000000	86.649
60.000000	86.653
60.799999	86.661
61.500000	86.671
62.200001	86.682
63.000000	86.697
64.000000	86.718
65.000000	86.741
66.000000	86.766
67.000000	86.794
68.000000	86.824
69.000000	86.855
70.000000	86.886
71.000000	86.917
72.000000	86.948
73.000000	86.978
74.000000	87.006
75.000000	87.034
76.199997	87.066
77.500000	87.099
78.800003	87.129
80.000000	87.154
81.199997	87.176
82.500000	87.194
83.800003	87.208
85.000000	87.214
86.199997	87.216
87.500000	87.213
88.500000	87.207
90.000000	87.193
91.199997	87.177
92.500000	87.156
93.800003	87.132
95.000000	87.106
96.199997	87.078
97.500000	87.045
98.800003	87.009
100.000000	86.973
101.500000	86.926
103.000000	86.874
104.400002	86.823
106.000000	86.761
107.500000	86.700
109.000000	86.635
110.599998	86.564
112.000000	86.499
113.800003	86.413
115.000000	86.354
117.199997	86.245
118.000000	86.205
120.599998	86.073
122.000000	86.002
124.099998	85.896
125.000000	85.850
126.500000	85.775
128.000000	85.701
131.500000	85.530
132.000000	85.507
134.000000	85.413
136.000000	85.322
138.000000	85.233
140.000000	85.148
143.000000	85.025
145.000000	84.946
147.500000	84.851
150.000000	84.757
152.500000	84.664
155.000000	84.570
157.500000	84.475
160.000000	84.377
162.500000	84.277
165.000000	84.178
167.500000	84.082
170.000000	83.992
172.500000	83.912
175.000000	83.846
177.500000	83.798
180.000000	83.774
182.500000	83.776
185.000000	83.810
187.500000	83.877
190.000000	83.978
192.500000	84.109
195.000000	84.263
197.500000	84.426
200.000000	84.585
203.000000	84.749
206.000000	84.867
209.000000	84.928
212.000000	84.929
214.000000	84.899
218.000000	84.779
220.000000	84.698
224.000000	84.509
227.000000	84.360
230.000000	84.213
233.000000	84.076
236.000000	83.950
240.000000	83.804
243.000000	83.709
247.000000	83.599
250.000000	83.526
254.000000	83.438
258.000000	83.359
262.000000	83.286
265.000000	83.235
269.000000	83.169
272.000000	83.122
276.000000	83.061
280.000000	83.001
285.000000	82.927
290.000000	82.853
295.000000	82.782
300.000000	82.712
304.000000	82.657
307.000000	82.618
311.000000	82.567
315.000000	82.519
320.000000	82.463
325.000000	82.411
330.000000	82.365
335.000000	82.325
340.000000	82.290
345.000000	82.262
350.000000	82.239
355.000000	82.222
360.000000	82.210
365.000000	82.204
370.000000	82.203
375.000000	82.207
382.000000	82.223
387.000000	82.241
395.000000	82.281
400.000000	82.313
406.000000	82.357
412.000000	82.407
418.000000	82.462
425.000000	82.530
431.000000	82.591
437.000000	82.652
444.000000	82.724
450.000000	82.786
455.000000	82.837
462.000000	82.909
468.000000	82.969
475.000000	83.039
482.000000	83.107
487.000000	83.154
494.000000	83.218
500.000000	83.271
508.000000	83.338
515.000000	83.394
522.000000	83.446
530.000000	83.501
538.000000	83.552
545.000000	83.593
552.000000	83.630
560.000000	83.668
570.000000	83.709
580.000000	83.743
590.000000	83.771
600.000000	83.793
608.000000	83.807
615.000000	83.817
622.000000	83.825
630.000000	83.831
640.000000	83.834
650.000000	83.833
660.000000	83.827
670.000000	83.816
680.000000	83.801
690.000000	83.782
700.000000	83.759
710.000000	83.733
720.000000	83.704
730.000000	83.673
740.000000	83.640
750.000000	83.605
762.000000	83.561
775.000000	83.510
788.000000	83.452
800.000000	83.391
812.000000	83.322
825.000000	83.237
838.000000	83.139
850.000000	83.038
862.000000	82.925
875.000000	82.792
885.000000	82.682
900.000000	82.506
912.000000	82.356
925.000000	82.188
938.000000	82.017
950.000000	81.861
962.000000	81.714
975.000000	81.574
988.000000	81.468
1000.000000	81.411
1015.000000	81.408
1030.000000	81.492
1044.000000	81.640
1060.000000	81.861
1075.000000	82.077
1090.000000	82.264
1106.000000	82.398
1120.000000	82.442
1138.000000	82.391
1150.000000	82.298
1172.000000	82.047
1180.000000	81.943
1206.000000	81.619
1220.000000	81.492
1241.000000	81.394
1250.000000	81.377
1265.000000	81.359
1280.000000	81.331
1315.000000	81.173
1320.000000	81.139
1340.000000	80.973
1360.000000	80.762
1380.000000	80.521
1400.000000	80.278
1430.000000	79.971
1450.000000	79.818
1475.000000	79.679
1500.000000	79.593
1525.000000	79.599
1550.000000	79.729
1575.000000	79.923
1600.000000	80.033
1625.000000	79.935
1650.000000	79.614
1675.000000	79.175
1700.000000	78.755
1725.000000	78.412
1750.000000	78.104
1775.000000	77.777
1800.000000	77.434
1825.000000	77.145
1850.000000	77.002
1875.000000	77.037
1900.000000	77.191
1925.000000	77.384
1950.000000	77.574
1975.000000	77.763
2000.000000	77.964
2030.000000	78.231
2060.000000	78.512
2090.000000	78.774
2120.000000	78.976
2140.000000	79.062
2180.000000	79.107
2200.000000	79.074
2240.000000	78.943
2270.000000	78.835
2300.000000	78.770
2330.000000	78.782
2360.000000	78.871
2400.000000	79.052
2430.000000	79.195
2470.000000	79.389
2500.000000	79.555
2540.000000	79.809
2580.000000	80.082
2620.000000	80.359
2650.000000	80.572
2690.000000	80.875
2720.000000	81.116
2760.000000	81.446
2800.000000	81.802
2850.000000	82.396
2900.000000	83.290
2950.000000	84.413
3000.000000	85.497
3040.000000	86.184
3070.000000	86.565
3110.000000	86.911
3150.000000	87.123
3200.000000	87.298
3250.000000	87.449
3300.000000	87.595
3350.000000	87.714
3400.000000	87.783
3450.000000	87.794
3500.000000	87.754
3550.000000	87.684
3600.000000	87.604
3650.000000	87.533
3700.000000	87.471
3750.000000	87.394
3820.000000	87.176
3870.000000	86.912
3950.000000	86.371
4000.000000	86.042
4060.000000	85.726
4120.000000	85.518
4180.000000	85.403
4250.000000	85.339
4310.000000	85.299
4370.000000	85.243
4440.000000	85.136
4500.000000	85.005
4550.000000	84.868
4620.000000	84.627
4680.000000	84.373
4750.000000	84.018
4820.000000	83.603
4870.000000	83.277
4940.000000	82.803
5000.000000	82.414
5080.000000	81.993
5150.000000	81.790
5220.000000	81.819
5300.000000	82.203
5380.000000	82.953
5450.000000	83.814
5520.000000	84.734
5600.000000	85.715
5700.000000	86.696
5800.000000	87.332
5900.000000	87.616
6000.000000	87.599
6080.000000	87.425
6150.000000	87.197
6220.000000	86.932
6300.000000	86.622
6400.000000	86.256
6500.000000	85.904
6600.000000	85.510
6700.000000	85.022
6800.000000	84.433
6900.000000	83.787
7000.000000	83.161
7100.000000	82.644
7200.000000	82.318
7300.000000	82.250
7400.000000	82.470
7500.000000	82.947
7620.000000	83.712
7750.000000	84.521
7880.000000	85.104
8000.000000	85.379
8120.000000	85.413
8250.000000	85.204
8380.000000	84.762
8500.000000	84.175
8620.000000	83.444
8750.000000	82.511
8850.000000	81.709
9000.000000	80.471
9120.000000	79.638
9250.000000	79.120
9380.000000	79.054
9500.000000	79.277
9620.000000	79.626
9750.000000	80.013
9880.000000	80.302
10000.000000	80.422
10150.000000	80.353
10300.000000	80.086
10440.000000	79.722
10600.000000	79.233
10750.000000	78.715
10900.000000	78.126
11060.000000	77.405
11200.000000	76.715
11380.000000	75.819
11500.000000	75.282
11720.000000	74.627
11800.000000	74.550
12060.000000	74.987
12200.000000	75.534
12410.000000	76.415
12500.000000	76.735
12650.000000	77.126
12800.000000	77.313
13150.000000	77.036
13200.000000	76.940
13400.000000	76.501
13600.000000	76.037
13800.000000	75.543
14000.000000	74.940
14300.000000	73.691
14500.000000	72.655
14750.000000	71.362
15000.000000	70.447
15250.000000	70.287
15500.000000	71.189
15750.000000	73.105
16000.000000	75.361
16250.000000	77.267
16500.000000	78.545
16750.000000	79.206
17000.000000	79.345
17250.000000	79.027
17500.000000	78.293
17750.000000	77.209
18000.000000	75.885
18250.000000	74.481
18500.000000	73.176
18750.000000	72.125
19000.000000	71.453
19250.000000	71.246
19500.000000	71.448
19750.000000	71.804
