* Measurement data measured by REW V5.20.4
* Source: Trace Arithmetic result Merge B to A
* Format: Trace Arithmetic result Merge B to A
* Dated: 30-Mar-2022 22:38:02
* REW Settings:
*  C-weighting compensation: Off
*  Target level: 75.0 dB
* Note: Trace Arithmetic B to A at 1,000 Hz A = HE-R10D L VSG to Crin B = HE-R10D L VSG B was scaled by 111.3 dB
* Measurement: HE-R10D L VSG to Crin
* Smoothing: 1/24 octave
* Frequency Step: 1/48 octave
* Start Frequency: 20.000 Hz
*
* Freq(Hz)	SPL(dB)
20.000000	80.190
20.299999	80.315
20.600000	80.437
20.900000	80.556
21.200001	80.669
21.400000	80.742
21.799999	80.878
22.000000	80.942
22.400000	81.061
22.700001	81.143
23.000000	81.221
23.299999	81.295
23.600000	81.364
24.000000	81.451
24.299999	81.512
24.700001	81.588
25.000000	81.642
25.400000	81.713
25.799999	81.784
26.200001	81.862
26.500000	81.925
26.900000	82.020
27.200001	82.097
27.600000	82.209
28.000000	82.328
28.500000	82.481
29.000000	82.632
29.500000	82.775
30.000000	82.910
30.400000	83.009
30.700001	83.079
31.100000	83.167
31.500000	83.249
32.000000	83.346
32.500000	83.442
33.000000	83.539
33.500000	83.640
34.000000	83.745
34.500000	83.852
35.000000	83.959
35.500000	84.059
36.000000	84.148
36.500000	84.225
37.000000	84.293
37.500000	84.360
38.200001	84.460
38.700001	84.534
39.500000	84.643
40.000000	84.696
40.599998	84.740
41.200001	84.763
41.799999	84.765
42.500000	84.747
43.099998	84.723
43.700001	84.700
44.400002	84.678
45.000000	84.666
45.500000	84.660
46.200001	84.661
46.799999	84.673
47.500000	84.700
48.200001	84.736
48.700001	84.764
49.400002	84.802
50.000000	84.832
50.799999	84.864
51.500000	84.885
52.200001	84.904
53.000000	84.920
53.799999	84.931
54.500000	84.936
55.200001	84.941
56.000000	84.949
57.000000	84.964
58.000000	84.983
59.000000	85.006
60.000000	85.031
60.799999	85.052
61.500000	85.070
62.200001	85.087
63.000000	85.104
64.000000	85.123
65.000000	85.138
66.000000	85.153
67.000000	85.169
68.000000	85.188
69.000000	85.210
70.000000	85.237
71.000000	85.269
72.000000	85.306
73.000000	85.343
74.000000	85.378
75.000000	85.407
76.199997	85.434
77.500000	85.455
78.800003	85.468
80.000000	85.471
81.199997	85.469
82.500000	85.462
83.800003	85.457
85.000000	85.451
86.199997	85.441
87.500000	85.422
88.500000	85.402
90.000000	85.363
91.199997	85.329
92.500000	85.291
93.800003	85.253
95.000000	85.220
96.199997	85.188
97.500000	85.152
98.800003	85.114
100.000000	85.074
101.500000	85.019
103.000000	84.960
104.400002	84.902
106.000000	84.834
107.500000	84.767
109.000000	84.696
110.599998	84.616
112.000000	84.541
113.800003	84.440
115.000000	84.372
117.199997	84.246
118.000000	84.200
120.599998	84.057
122.000000	83.982
124.099998	83.872
125.000000	83.826
126.500000	83.750
128.000000	83.675
131.500000	83.504
132.000000	83.481
134.000000	83.386
136.000000	83.294
138.000000	83.205
140.000000	83.117
143.000000	82.989
145.000000	82.906
147.500000	82.807
150.000000	82.712
152.500000	82.618
155.000000	82.520
157.500000	82.417
160.000000	82.306
162.500000	82.189
165.000000	82.067
167.500000	81.946
170.000000	81.839
172.500000	81.773
175.000000	81.777
177.500000	81.859
180.000000	81.990
182.500000	82.117
185.000000	82.197
187.500000	82.212
190.000000	82.171
192.500000	82.093
195.000000	82.002
197.500000	81.922
200.000000	81.875
203.000000	81.896
206.000000	82.039
209.000000	82.323
212.000000	82.716
214.000000	82.997
218.000000	83.477
220.000000	83.637
224.000000	83.771
227.000000	83.736
230.000000	83.627
233.000000	83.479
236.000000	83.322
240.000000	83.124
243.000000	82.997
247.000000	82.856
250.000000	82.768
254.000000	82.669
258.000000	82.583
262.000000	82.504
265.000000	82.450
269.000000	82.384
272.000000	82.340
276.000000	82.288
280.000000	82.241
285.000000	82.187
290.000000	82.135
295.000000	82.083
300.000000	82.031
304.000000	81.990
307.000000	81.959
311.000000	81.919
315.000000	81.881
320.000000	81.841
325.000000	81.808
330.000000	81.782
335.000000	81.761
340.000000	81.748
345.000000	81.743
350.000000	81.746
355.000000	81.753
360.000000	81.763
365.000000	81.774
370.000000	81.791
375.000000	81.815
382.000000	81.858
387.000000	81.893
395.000000	81.953
400.000000	81.996
406.000000	82.054
412.000000	82.121
418.000000	82.196
425.000000	82.288
431.000000	82.367
437.000000	82.444
444.000000	82.535
450.000000	82.613
455.000000	82.679
462.000000	82.771
468.000000	82.851
475.000000	82.946
482.000000	83.042
487.000000	83.109
494.000000	83.201
500.000000	83.277
508.000000	83.374
515.000000	83.455
522.000000	83.533
530.000000	83.618
538.000000	83.698
545.000000	83.764
552.000000	83.823
560.000000	83.884
570.000000	83.950
580.000000	84.004
590.000000	84.046
600.000000	84.080
608.000000	84.100
615.000000	84.113
622.000000	84.122
630.000000	84.128
640.000000	84.128
650.000000	84.122
660.000000	84.109
670.000000	84.090
680.000000	84.062
690.000000	84.029
700.000000	83.989
710.000000	83.944
720.000000	83.894
730.000000	83.839
740.000000	83.779
750.000000	83.713
762.000000	83.627
775.000000	83.527
788.000000	83.418
800.000000	83.309
812.000000	83.193
825.000000	83.059
838.000000	82.916
850.000000	82.772
862.000000	82.612
875.000000	82.416
885.000000	82.249
900.000000	81.982
912.000000	81.774
925.000000	81.576
938.000000	81.406
950.000000	81.254
962.000000	81.086
975.000000	80.898
988.000000	80.762
1000.000000	80.749
1015.000000	80.929
1030.000000	81.264
1044.000000	81.612
1060.000000	81.951
1075.000000	82.174
1090.000000	82.302
1106.000000	82.342
1120.000000	82.301
1138.000000	82.155
1150.000000	82.011
1172.000000	81.691
1180.000000	81.568
1206.000000	81.198
1220.000000	81.053
1241.000000	80.933
1250.000000	80.907
1265.000000	80.876
1280.000000	80.836
1315.000000	80.646
1320.000000	80.607
1340.000000	80.423
1360.000000	80.194
1380.000000	79.939
1400.000000	79.685
1430.000000	79.362
1450.000000	79.196
1475.000000	79.038
1500.000000	78.939
1525.000000	78.936
1550.000000	79.031
1575.000000	79.117
1600.000000	79.034
1625.000000	78.723
1650.000000	78.302
1675.000000	77.959
1700.000000	77.784
1725.000000	77.709
1750.000000	77.598
1775.000000	77.361
1800.000000	77.002
1825.000000	76.611
1850.000000	76.303
1875.000000	76.149
1900.000000	76.153
1925.000000	76.281
1950.000000	76.493
1975.000000	76.758
2000.000000	77.054
2030.000000	77.423
2060.000000	77.780
2090.000000	78.095
2120.000000	78.346
2140.000000	78.470
2180.000000	78.596
2200.000000	78.596
2240.000000	78.492
2270.000000	78.368
2300.000000	78.270
2330.000000	78.256
2360.000000	78.344
2400.000000	78.565
2430.000000	78.753
2470.000000	79.001
2500.000000	79.189
2540.000000	79.435
2580.000000	79.660
2620.000000	79.852
2650.000000	79.980
2690.000000	80.137
2720.000000	80.242
2760.000000	80.354
2800.000000	80.458
2850.000000	80.764
2900.000000	81.577
2950.000000	82.984
3000.000000	84.676
3040.000000	85.943
3070.000000	86.742
3110.000000	87.550
3150.000000	88.066
3200.000000	88.357
3250.000000	88.356
3300.000000	88.162
3350.000000	87.854
3400.000000	87.486
3450.000000	87.097
3500.000000	86.721
3550.000000	86.375
3600.000000	86.060
3650.000000	85.777
3700.000000	85.543
3750.000000	85.380
3820.000000	85.291
3870.000000	85.331
3950.000000	85.525
4000.000000	85.646
4060.000000	85.714
4120.000000	85.674
4180.000000	85.531
4250.000000	85.246
4310.000000	84.902
4370.000000	84.466
4440.000000	83.875
4500.000000	83.359
4550.000000	82.964
4620.000000	82.498
4680.000000	82.174
4750.000000	81.822
4820.000000	81.413
4870.000000	81.051
4940.000000	80.446
5000.000000	79.887
5080.000000	79.237
5150.000000	78.918
5220.000000	78.934
5300.000000	79.394
5380.000000	80.282
5450.000000	81.310
5520.000000	82.423
5600.000000	83.601
5700.000000	84.724
5800.000000	85.423
5900.000000	85.798
6000.000000	85.917
6080.000000	85.826
6150.000000	85.621
6220.000000	85.341
6300.000000	85.023
6400.000000	84.785
6500.000000	84.779
6600.000000	84.859
6700.000000	84.818
6800.000000	84.542
6900.000000	84.028
7000.000000	83.352
7100.000000	82.635
7200.000000	82.037
7300.000000	81.724
7400.000000	81.801
7500.000000	82.257
7620.000000	83.108
7750.000000	84.030
7880.000000	84.623
8000.000000	84.736
8120.000000	84.384
8250.000000	83.470
8380.000000	82.077
8500.000000	80.644
8620.000000	79.598
8750.000000	79.292
8850.000000	79.422
9000.000000	79.593
9120.000000	79.522
9250.000000	79.263
9380.000000	78.829
9500.000000	78.232
9620.000000	77.416
9750.000000	76.302
9880.000000	74.993
10000.000000	73.662
10150.000000	72.039
10300.000000	71.094
10440.000000	71.367
10600.000000	72.571
10750.000000	73.786
10900.000000	74.772
11060.000000	75.564
11200.000000	76.102
11380.000000	76.621
11500.000000	76.841
11720.000000	76.922
11800.000000	76.851
12060.000000	76.309
12200.000000	75.821
12410.000000	74.843
12500.000000	74.408
12650.000000	73.900
12800.000000	73.864
13150.000000	74.378
13200.000000	74.342
13400.000000	73.740
13600.000000	72.471
13800.000000	70.799
14000.000000	69.274
14300.000000	68.388
14500.000000	68.190
14750.000000	67.328
15000.000000	65.820
15250.000000	64.919
15500.000000	65.958
15750.000000	68.343
16000.000000	70.891
16250.000000	73.010
16500.000000	74.555
16750.000000	75.595
17000.000000	76.203
17250.000000	76.329
17500.000000	75.882
17750.000000	74.865
18000.000000	73.407
18250.000000	71.699
18500.000000	69.911
18750.000000	68.191
19000.000000	66.771
19250.000000	66.024
19500.000000	66.117
19750.000000	66.645
