* Measurement data measured by REW V5.20
* Source: USB-C to 3.5mm Headphone Jack Adapter, USB-C to 3.5mm Headphone Jack Adapter, 0, volume: 0.138
* Format: 256k Log Swept Sine, 1 sweep at -12.0 dBFS with no timing reference
* Dated: Dec 7, 2021 4:52:39 PM
* REW Settings:
*  C-weighting compensation: Off
*  Target level: 75.0 dB
* Note: 
* Measurement: S4 - L
* Smoothing: None
* Frequency Step: 1/48 octave
* Start Frequency: 20.300 Hz
*
* Freq(Hz)	SPL(dB)	Phase(degrees)
20.000000 91.707458	-105.3866
20.299999	91.707458	-105.3866
20.600000	91.801849	-106.2381
20.900000	91.895027	-106.8632
21.200001	91.997650	-107.3402
21.400000	92.072662	-107.5968
21.799999	92.231422	-108.0370
22.000000	92.310501	-108.2494
22.400000	92.458755	-108.6986
22.700001	92.556259	-109.0800
23.000000	92.642426	-109.5137
23.299999	92.720123	-110.0123
23.600000	92.792542	-110.5848
24.000000	92.883896	-111.4548
24.299999	92.948563	-112.1496
24.700001	93.029190	-113.0433
25.000000	93.087151	-113.6234
25.400000	93.166565	-114.2284
25.799999	93.255142	-114.6801
26.200001	93.352959	-115.1080
26.500000	93.426407	-115.4990
26.900000	93.511833	-116.1671
27.200001	93.560150	-116.7607
27.600000	93.604065	-117.5747
28.000000	93.637619	-118.2918
28.500000	93.697838	-118.9437
29.000000	93.802971	-119.4100
29.500000	93.939537	-119.8807
30.000000	94.066978	-120.4473
30.400000	94.144661	-120.9289
30.700001	94.189346	-121.2735
31.100000	94.239647	-121.6993
31.500000	94.290604	-122.1145
32.000000	94.363541	-122.6836
32.500000	94.442764	-123.3295
33.000000	94.519592	-123.9931
33.500000	94.590942	-124.6047
34.000000	94.658524	-125.1460
34.500000	94.723900	-125.6451
35.000000	94.787216	-126.1395
35.500000	94.848206	-126.6494
36.000000	94.907188	-127.1749
36.500000	94.965057	-127.7066
37.000000	95.022560	-128.2401
37.500000	95.078217	-128.7755
38.200001	95.147552	-129.4939
38.700001	95.193222	-129.9427
39.500000	95.277069	-130.6017
40.000000	95.332565	-131.0800
40.599998	95.382172	-131.7061
41.200001	95.413483	-132.2037
41.799999	95.454269	-132.4962
42.500000	95.529984	-132.8066
43.099998	95.590073	-133.2031
43.700001	95.627747	-133.6373
44.400002	95.669548	-134.1129
45.000000	95.721466	-134.5834
45.500000	95.770348	-135.0268
46.200001	95.841995	-135.5972
46.799999	95.913246	-136.0150
47.500000	95.994514	-136.5725
48.200001	96.035858	-137.1779
48.700001	96.043930	-137.4840
49.400002	96.075867	-137.7244
50.000000	96.141205	-138.0314
50.799999	96.228317	-138.7750
51.500000	96.271835	-139.3911
52.200001	96.307388	-139.8200
53.000000	96.330078	-140.3005
53.799999	96.332146	-140.7269
54.500000	96.369972	-141.1128
55.200001	96.434906	-141.6278
56.000000	96.500893	-142.0793
57.000000	96.555023	-142.6897
58.000000	96.507050	-143.5910
59.000000	96.600578	-144.1993
60.000000	96.750931	-145.3889
60.799999	96.700630	-145.4367
61.500000	96.694466	-144.8776
62.200001	96.744240	-145.1082
63.000000	96.747589	-146.0193
64.000000	96.800293	-146.4344
65.000000	96.904526	-146.9127
66.000000	96.883385	-147.3777
67.000000	96.901833	-147.7162
68.000000	96.956390	-148.2178
69.000000	96.994064	-148.5941
70.000000	97.010674	-149.0100
71.000000	97.037155	-149.4130
72.000000	97.079422	-149.8543
73.000000	97.099457	-150.2778
74.000000	97.112122	-150.6701
75.000000	97.131569	-151.0509
76.199997	97.178024	-151.4752
77.500000	97.214386	-151.9920
78.800003	97.218155	-152.4999
80.000000	97.233032	-152.9375
81.199997	97.270889	-153.3955
82.500000	97.285400	-153.6808
83.800003	97.311043	-154.1013
85.000000	97.331276	-154.4556
86.199997	97.362335	-154.8237
87.500000	97.376076	-155.2469
88.500000	97.395317	-155.5456
90.000000	97.416550	-155.9843
91.199997	97.441536	-156.3787
92.500000	97.462700	-156.7348
93.800003	97.478561	-157.0816
95.000000	97.481201	-157.3776
96.199997	97.509705	-157.7868
97.500000	97.516129	-158.0860
98.800003	97.544167	-158.3318
100.000000	97.535484	-158.6011
101.500000	97.546860	-159.0535
103.000000	97.569229	-159.4594
104.400002	97.579605	-159.8151
106.000000	97.573105	-160.1907
107.500000	97.599426	-160.6362
109.000000	97.598320	-160.8244
110.599998	97.626678	-161.1951
112.000000	97.630318	-161.5440
113.800003	97.653854	-161.8658
115.000000	97.646698	-162.0854
117.199997	97.680099	-162.6262
118.000000	97.696045	-162.6736
120.599998	97.613670	-162.7167
122.000000	97.745117	-163.9738
124.099998	97.687065	-163.7492
125.000000	97.678787	-164.0789
126.500000	97.694908	-164.3395
128.000000	97.687363	-164.5341
131.500000	97.696648	-165.2007
132.000000	97.693237	-165.2651
134.000000	97.696976	-165.6065
136.000000	97.706009	-165.8999
138.000000	97.704308	-166.2366
140.000000	97.706337	-166.5552
143.000000	97.704330	-167.0065
145.000000	97.700447	-167.2355
147.500000	97.702927	-167.6505
150.000000	97.703491	-167.9451
152.500000	97.694748	-168.2724
155.000000	97.684540	-168.6292
157.500000	97.674980	-168.9531
160.000000	97.666130	-169.1934
162.500000	97.664299	-169.4833
165.000000	97.648666	-169.7704
167.500000	97.642227	-169.9943
170.000000	97.638374	-170.2085
172.500000	97.632751	-170.4733
175.000000	97.627663	-170.6546
177.500000	97.622635	-170.9734
180.000000	97.645691	-171.1560
182.500000	97.611610	-171.4473
185.000000	97.613129	-171.6164
187.500000	97.593246	-171.8212
190.000000	97.584702	-172.0712
192.500000	97.594200	-172.3222
195.000000	97.573013	-172.5402
197.500000	97.565430	-172.6557
200.000000	97.545998	-172.8952
203.000000	97.545433	-173.1089
206.000000	97.519821	-173.4371
209.000000	97.508591	-173.6446
212.000000	97.492889	-173.8647
214.000000	97.484489	-174.0099
218.000000	97.460632	-174.3168
220.000000	97.452271	-174.4124
224.000000	97.420235	-174.7157
227.000000	97.398460	-174.8932
230.000000	97.378159	-175.0986
233.000000	97.360291	-175.2538
236.000000	97.331268	-175.3862
240.000000	97.308746	-176.0450
243.000000	97.276237	-175.6723
247.000000	97.278748	-175.7969
250.000000	97.248779	-175.8707
254.000000	97.231956	-176.1074
258.000000	97.211121	-176.2635
262.000000	97.186249	-176.4392
265.000000	97.169441	-176.5797
269.000000	97.154190	-176.7837
272.000000	97.127380	-176.9267
276.000000	97.100151	-177.0520
280.000000	97.090767	-177.2570
285.000000	97.048653	-177.3240
290.000000	97.009293	-177.5041
295.000000	96.969482	-177.6160
300.000000	96.886253	-177.6251
304.000000	96.907867	-177.9383
307.000000	96.866562	-177.9880
311.000000	96.839111	-178.0994
315.000000	96.797966	-178.1620
320.000000	96.756744	-178.2551
325.000000	96.716362	-178.3251
330.000000	96.688599	-178.3903
335.000000	96.646561	-178.4074
340.000000	96.604660	-178.4764
345.000000	96.554565	-178.4928
350.000000	96.512962	-178.4798
355.000000	96.472916	-178.4092
360.000000	96.440369	-178.4259
365.000000	96.393799	-178.3367
370.000000	96.382690	-178.4412
375.000000	96.347252	-178.4232
382.000000	96.288490	-178.3968
387.000000	96.263390	-178.4159
395.000000	96.196365	-178.3668
400.000000	96.153664	-178.3938
406.000000	96.110077	-178.3095
412.000000	96.075012	-178.2584
418.000000	96.026138	-178.1637
425.000000	95.979523	-178.0152
431.000000	95.935486	-177.9452
437.000000	95.896896	-177.8118
444.000000	95.841858	-177.6903
450.000000	95.802261	-177.6295
455.000000	95.764999	-177.4973
462.000000	95.723419	-177.3534
468.000000	95.679863	-177.2196
475.000000	95.632790	-177.0494
482.000000	95.582489	-176.9164
487.000000	95.551147	-176.7826
494.000000	95.503067	-176.5998
500.000000	95.466095	-176.4506
508.000000	95.406265	-176.2304
515.000000	95.355568	-176.0503
522.000000	95.307014	-175.8657
530.000000	95.245491	-175.6260
538.000000	95.176514	-175.3612
545.000000	95.126305	-175.0678
552.000000	95.068726	-174.7159
560.000000	95.020920	-174.2892
570.000000	94.966377	-173.7529
580.000000	94.914658	-173.2985
590.000000	94.863358	-172.7946
600.000000	94.815315	-172.3278
608.000000	94.772591	-171.9756
615.000000	94.741890	-171.6112
622.000000	94.702866	-171.2735
630.000000	94.668022	-170.8581
640.000000	94.621613	-170.3558
650.000000	94.575539	-169.8053
660.000000	94.526596	-169.1252
670.000000	94.487938	-168.7295
680.000000	94.448097	-168.1477
690.000000	94.409935	-167.5298
700.000000	94.372627	-166.9533
710.000000	94.341042	-166.3183
720.000000	94.310219	-165.6881
730.000000	94.282295	-165.0638
740.000000	94.253326	-164.4206
750.000000	94.228279	-163.7941
762.000000	94.202461	-162.9915
775.000000	94.176048	-162.1242
788.000000	94.157059	-161.2508
800.000000	94.142807	-160.4042
812.000000	94.128563	-159.5908
825.000000	94.124100	-158.6723
838.000000	94.123138	-157.7527
850.000000	94.119453	-156.9169
862.000000	94.126701	-156.0491
875.000000	94.137688	-155.1032
885.000000	94.148148	-154.3942
900.000000	94.203682	-153.2547
912.000000	94.191177	-152.4539
925.000000	94.218277	-151.5110
938.000000	94.251404	-150.5673
950.000000	94.282806	-149.6991
962.000000	94.320709	-148.8228
975.000000	94.373276	-147.8758
988.000000	94.428467	-146.9346
1000.000000	94.481987	-146.0570
1015.000000	94.559525	-145.0085
1030.000000	94.647903	-143.9922
1044.000000	94.739212	-143.0567
1060.000000	94.851479	-142.0399
1075.000000	94.965073	-141.1476
1090.000000	95.080009	-140.2928
1106.000000	95.215584	-139.4614
1120.000000	95.333992	-138.8044
1138.000000	95.488174	-138.0733
1150.000000	95.595558	-137.6134
1172.000000	95.779816	-136.8705
1180.000000	95.847549	-136.6445
1206.000000	96.060379	-135.9857
1220.000000	96.168922	-135.6928
1241.000000	96.323273	-135.3160
1250.000000	96.388130	-135.1781
1265.000000	96.487480	-134.9537
1280.000000	96.586182	-134.7385
1315.000000	96.795776	-134.3269
1320.000000	96.815796	-134.2962
1340.000000	96.931999	-134.0476
1360.000000	97.028297	-133.8584
1380.000000	97.132233	-133.5925
1400.000000	97.214531	-133.4260
1430.000000	97.336029	-133.0664
1450.000000	97.413460	-132.8339
1475.000000	97.506470	-132.5154
1500.000000	97.599617	-132.1288
1525.000000	97.680695	-131.7879
1550.000000	97.767967	-131.4009
1575.000000	97.852142	-131.0036
1600.000000	97.936050	-130.5656
1625.000000	98.019196	-130.1080
1650.000000	98.102051	-129.6458
1675.000000	98.185852	-129.1568
1700.000000	98.275879	-128.6594
1725.000000	98.361115	-128.1385
1750.000000	98.455231	-127.6245
1775.000000	98.547195	-127.0871
1800.000000	98.645363	-126.5519
1825.000000	98.744728	-125.9984
1850.000000	98.843666	-125.4265
1875.000000	98.951469	-124.8354
1900.000000	99.063301	-124.2890
1925.000000	99.179779	-123.7046
1950.000000	99.300529	-123.1361
1975.000000	99.426186	-122.5891
2000.000000	99.560364	-122.0231
2030.000000	99.721764	-121.3819
2060.000000	99.893753	-120.7367
2090.000000	100.078537	-120.1105
2120.000000	100.276070	-119.5367
2140.000000	100.416779	-119.1995
2180.000000	100.705421	-118.6297
2200.000000	100.856499	-118.4041
2240.000000	101.165207	-118.1141
2270.000000	101.401962	-118.0754
2300.000000	101.632545	-118.1380
2330.000000	101.853912	-118.3481
2360.000000	102.065964	-118.6351
2400.000000	102.330048	-119.1423
2430.000000	102.513390	-119.5814
2470.000000	102.736549	-120.2182
2500.000000	102.897507	-120.6980
2540.000000	103.095726	-121.3666
2580.000000	103.285362	-122.0586
2620.000000	103.461304	-122.7633
2650.000000	103.587845	-123.3047
2690.000000	103.749123	-124.0575
2720.000000	103.864212	-124.6334
2760.000000	104.008408	-125.4279
2800.000000	104.143677	-126.2434
2850.000000	104.297119	-127.3180
2900.000000	104.434067	-128.4025
2950.000000	104.552261	-129.5011
3000.000000	104.651283	-130.6218
3040.000000	104.716698	-131.4994
3070.000000	104.756866	-132.1622
3110.000000	104.802216	-133.0196
3150.000000	104.835838	-133.8427
3200.000000	104.862816	-134.8195
3250.000000	104.873817	-135.7263
3300.000000	104.873520	-136.5239
3350.000000	104.865311	-137.2229
3400.000000	104.854599	-137.8343
3450.000000	104.839180	-138.3806
3500.000000	104.822044	-138.8250
3550.000000	104.806610	-139.1734
3600.000000	104.797241	-139.3863
3650.000000	104.807625	-139.5540
3700.000000	104.843208	-139.7397
3750.000000	104.890594	-140.0756
3820.000000	104.946518	-140.7936
3870.000000	104.964828	-141.3913
3950.000000	104.957138	-142.3239
4000.000000	104.937271	-142.8449
4060.000000	104.904739	-143.3846
4120.000000	104.864975	-143.8445
4180.000000	104.824188	-144.2406
4250.000000	104.775810	-144.6168
4310.000000	104.735023	-144.9115
4370.000000	104.689644	-145.1580
4440.000000	104.639496	-145.3606
4500.000000	104.598801	-145.5052
4550.000000	104.566063	-145.5916
4620.000000	104.527718	-145.6617
4680.000000	104.502083	-145.7259
4750.000000	104.474472	-145.8016
4820.000000	104.446625	-145.8751
4870.000000	104.421837	-145.9100
4940.000000	104.389259	-145.9012
5000.000000	104.363724	-145.8089
5080.000000	104.350800	-145.5765
5150.000000	104.366287	-145.3262
5220.000000	104.411034	-145.1660
5300.000000	104.486259	-145.1109
5380.000000	104.576035	-145.2909
5450.000000	104.658302	-145.6156
5520.000000	104.736290	-146.0858
5600.000000	104.813866	-146.7890
5700.000000	104.895485	-147.8449
5800.000000	104.951004	-149.0561
5900.000000	104.985321	-150.4059
6000.000000	104.993645	-151.8274
6080.000000	104.983055	-153.0113
6150.000000	104.960030	-154.0939
6220.000000	104.920830	-155.1085
6300.000000	104.869057	-156.2696
6400.000000	104.786552	-157.6560
6500.000000	104.698166	-158.9669
6600.000000	104.610229	-160.1947
6700.000000	104.505447	-161.4844
6800.000000	104.423187	-162.5278
6900.000000	104.352791	-163.6173
7000.000000	104.297119	-164.7059
7100.000000	104.258873	-165.8235
7200.000000	104.253036	-167.0214
7300.000000	104.270851	-168.4647
7400.000000	104.297508	-170.1429
7500.000000	104.324409	-172.1089
7620.000000	104.357368	-174.7409
7750.000000	104.380913	-178.0503
7880.000000	104.387939	178.0705
8000.000000	104.354446	173.9038
8120.000000	104.239326	169.1395
8250.000000	103.973068	163.5763
8380.000000	103.552116	157.9310
8500.000000	103.027809	152.8717
8620.000000	102.375145	148.1778
8750.000000	101.546196	143.8161
8850.000000	100.851349	141.1065
9000.000000	99.767090	138.1611
9120.000000	98.906288	136.6976
9250.000000	98.000183	135.7878
9380.000000	97.149055	135.5424
9500.000000	96.400482	135.7735
9620.000000	95.703629	136.2714
9750.000000	95.051140	137.4026
9880.000000	94.355232	138.3592
10000.000000	93.790329	139.6862
10150.000000	93.162613	141.4236
10300.000000	92.602715	143.3505
10440.000000	92.122856	145.2584
10600.000000	91.643738	147.4886
10750.000000	91.247574	149.6703
10900.000000	90.905975	151.7395
11060.000000	90.592598	153.8958
11200.000000	90.359413	155.7906
11380.000000	90.111122	158.1555
11500.000000	89.971832	159.6285
11720.000000	89.794266	162.0196
11800.000000	89.762253	162.8853
12060.000000	89.699951	165.3210
12200.000000	89.696220	166.4577
12410.000000	89.774124	167.6903
12500.000000	89.825447	168.1592
12650.000000	89.947563	168.5703
12800.000000	90.111832	168.9296
13150.000000	90.666008	168.5876
13200.000000	90.765305	168.4319
13400.000000	91.258698	167.1733
13600.000000	91.857826	165.0884
13800.000000	92.585075	161.9529
14000.000000	93.458191	157.4657
14300.000000	95.065521	147.7747
14500.000000	96.398712	137.7506
14750.000000	98.089981	119.0309
15000.000000	99.176849	92.4358
15250.000000	98.875298	62.1537
15500.000000	97.385239	35.4908
15750.000000	95.602509	14.6521
16000.000000	94.057533	-2.7595
16250.000000	92.839066	-18.6494
16500.000000	91.935852	-34.4120
16750.000000	91.310547	-50.8071
17000.000000	90.906654	-68.1917
17250.000000	90.664474	-87.4609
17500.000000	90.496788	-108.9857
17750.000000	90.323601	-133.5728
18000.000000	89.949631	-161.7908
18250.000000	89.118835	165.9879
18500.000000	87.535332	130.5795
18750.000000	85.094086	94.2455
19000.000000	81.937538	58.0027
19250.000000	78.237282	21.9652
19500.000000	74.045769	-13.1277
19750.000000	69.106071	-52.0067
