* Measurement data measured by REW V5.20
* Source: USB-C to 3.5mm Headphone Jack Adapter, USB-C to 3.5mm Headphone Jack Adapter, 0, volume: 0.138
* Format: 256k Log Swept Sine, 1 sweep at -12.0 dBFS with no timing reference
* Dated: Dec 7, 2021 4:53:36 PM
* REW Settings:
*  C-weighting compensation: Off
*  Target level: 75.0 dB
* Note: 
* Measurement: S4 - R
* Smoothing: None
* Frequency Step: 1/48 octave
* Start Frequency: 20.300 Hz
*
* Freq(Hz)	SPL(dB)	Phase(degrees)
20.000000 91.417038	-106.0395
20.299999	91.417038	-106.0395
20.600000	91.472511	-106.6310
20.900000	91.527718	-107.0443
21.200001	91.597458	-107.4204
21.400000	91.653992	-107.6894
21.799999	91.785332	-108.3178
22.000000	91.856468	-108.6798
22.400000	92.001968	-109.4710
22.700001	92.108185	-110.0900
23.000000	92.208206	-110.7122
23.299999	92.298668	-111.3295
23.600000	92.376328	-111.9357
24.000000	92.456627	-112.7007
24.299999	92.502228	-113.2119
24.700001	92.556198	-113.7777
25.000000	92.604538	-114.1296
25.400000	92.693497	-114.5813
25.799999	92.809982	-115.1422
26.200001	92.933174	-115.8824
26.500000	93.013306	-116.5187
26.900000	93.091896	-117.3345
27.200001	93.132812	-117.8270
27.600000	93.184731	-118.2759
28.000000	93.257423	-118.5925
28.500000	93.384628	-119.1423
29.000000	93.504677	-120.0904
29.500000	93.566612	-121.2012
30.000000	93.582359	-121.9752
30.400000	93.606766	-122.2224
30.700001	93.652939	-122.2894
31.100000	93.752563	-122.4377
31.500000	93.867882	-122.8287
32.000000	93.981445	-123.6208
32.500000	94.041458	-124.4510
33.000000	94.080841	-125.0803
33.500000	94.137436	-125.5614
34.000000	94.213928	-126.0639
34.500000	94.290291	-126.6257
35.000000	94.355896	-127.1712
35.500000	94.415070	-127.6704
36.000000	94.471458	-128.1698
36.500000	94.522926	-128.6980
37.000000	94.571060	-129.2316
37.500000	94.623032	-129.7542
38.200001	94.705215	-130.5000
38.700001	94.761589	-131.0325
39.500000	94.838966	-131.7692
40.000000	94.886421	-132.1586
40.599998	94.946991	-132.6413
41.200001	95.006470	-133.1993
41.799999	95.058434	-133.8117
42.500000	95.109299	-134.4879
43.099998	95.155266	-134.9735
43.700001	95.212563	-135.4273
44.400002	95.281212	-136.0206
45.000000	95.325745	-136.5247
45.500000	95.356750	-136.8619
46.200001	95.408524	-137.2433
46.799999	95.460564	-137.6234
47.500000	95.513023	-138.1911
48.200001	95.553177	-138.7987
48.700001	95.579758	-139.1985
49.400002	95.620667	-139.6684
50.000000	95.660728	-140.0308
50.799999	95.704147	-140.6082
51.500000	95.719505	-141.1452
52.200001	95.748665	-141.5751
53.000000	95.824844	-142.1624
53.799999	95.862816	-142.8681
54.500000	95.855148	-143.1223
55.200001	95.891518	-143.2131
56.000000	95.962799	-143.7927
57.000000	95.991257	-144.3928
58.000000	96.094185	-144.7402
59.000000	96.070862	-146.0255
60.000000	95.946419	-146.2129
60.799999	96.040352	-146.1149
61.500000	96.144669	-146.6796
62.200001	96.172256	-147.2650
63.000000	96.189804	-147.5825
64.000000	96.252090	-148.0550
65.000000	96.300774	-148.5252
66.000000	96.334122	-148.9072
67.000000	96.346138	-149.3612
68.000000	96.373337	-149.7855
69.000000	96.419365	-150.2081
70.000000	96.448746	-150.6607
71.000000	96.469589	-151.1521
72.000000	96.491211	-151.6457
73.000000	96.516098	-152.0100
74.000000	96.542198	-152.4339
75.000000	96.553177	-152.8820
76.199997	96.579819	-153.3354
77.500000	96.603325	-153.8399
78.800003	96.643501	-154.3212
80.000000	96.652969	-154.8087
81.199997	96.662086	-155.1189
82.500000	96.709610	-155.7664
83.800003	96.718628	-156.0583
85.000000	96.736473	-156.3923
86.199997	96.741425	-156.9758
87.500000	96.776039	-157.4925
88.500000	96.781158	-157.7591
90.000000	96.795219	-158.1444
91.199997	96.815788	-158.6321
92.500000	96.819191	-158.9186
93.800003	96.835442	-159.2359
95.000000	96.841225	-159.6411
96.199997	96.859955	-160.0560
97.500000	96.874977	-160.3883
98.800003	96.886787	-160.6732
100.000000	96.881157	-161.0820
101.500000	96.885979	-161.5073
103.000000	96.891457	-161.8972
104.400002	96.894196	-162.2600
106.000000	96.901482	-162.5765
107.500000	96.904419	-163.0817
109.000000	96.906219	-163.5054
110.599998	96.914124	-163.8682
112.000000	96.916443	-164.1409
113.800003	96.895142	-164.5333
115.000000	96.887207	-164.9655
117.199997	96.884918	-165.2998
118.000000	96.886658	-165.3151
120.599998	96.819283	-166.3970
122.000000	96.972710	-166.5316
124.099998	96.835663	-166.9144
125.000000	96.834351	-167.3563
126.500000	96.793098	-167.5436
128.000000	96.753754	-167.8326
131.500000	96.610062	-168.2343
132.000000	96.596008	-168.2963
134.000000	96.509094	-168.2336
136.000000	96.493027	-167.7592
138.000000	96.470795	-167.1788
140.000000	96.564018	-166.8898
143.000000	96.683792	-167.1214
145.000000	96.750214	-167.3808
147.500000	96.777130	-167.9718
150.000000	96.793404	-168.2990
152.500000	96.814407	-168.8755
155.000000	96.816650	-169.2035
157.500000	96.823860	-169.6394
160.000000	96.817039	-169.9460
162.500000	96.812431	-170.2554
165.000000	96.803398	-170.6769
167.500000	96.800247	-170.9664
170.000000	96.803917	-171.3054
172.500000	96.787666	-171.6102
175.000000	96.775787	-171.8868
177.500000	96.760132	-172.1911
180.000000	96.750114	-172.4129
182.500000	96.723328	-172.7563
185.000000	96.712898	-173.0141
187.500000	96.707603	-173.1648
190.000000	96.666344	-173.4006
192.500000	96.657555	-173.5688
195.000000	96.644600	-173.8528
197.500000	96.616386	-173.9442
200.000000	96.585144	-174.1599
203.000000	96.581383	-174.4799
206.000000	96.539032	-174.5637
209.000000	96.516144	-174.6751
212.000000	96.497612	-174.8680
214.000000	96.484764	-174.9854
218.000000	96.459236	-175.2025
220.000000	96.444771	-175.3232
224.000000	96.413246	-175.5588
227.000000	96.398064	-175.7630
230.000000	96.364578	-175.9333
233.000000	96.350510	-176.1495
236.000000	96.326988	-176.2753
240.000000	96.199745	-176.2828
243.000000	96.264732	-176.6202
247.000000	96.170677	-177.0201
250.000000	96.140007	-176.9971
254.000000	96.064148	-177.0087
258.000000	96.003265	-176.8543
262.000000	95.965286	-176.6604
265.000000	95.953972	-176.4524
269.000000	95.956985	-176.5023
272.000000	95.953644	-176.4531
276.000000	95.932442	-176.5132
280.000000	95.937927	-176.6601
285.000000	95.894402	-176.8555
290.000000	95.861435	-176.8508
295.000000	95.836380	-176.9744
300.000000	95.801552	-177.2703
304.000000	95.757538	-177.1700
307.000000	95.744324	-177.0783
311.000000	95.703979	-177.1144
315.000000	95.677681	-177.0909
320.000000	95.637367	-177.1295
325.000000	95.597595	-177.1301
330.000000	95.556656	-177.0945
335.000000	95.518387	-177.1025
340.000000	95.473221	-177.0830
345.000000	95.441040	-177.0646
350.000000	95.397514	-176.9855
355.000000	95.359306	-176.9587
360.000000	95.306023	-176.8286
365.000000	95.276161	-176.7634
370.000000	95.243149	-176.6892
375.000000	95.200882	-176.6187
382.000000	95.154358	-176.4321
387.000000	95.111885	-176.3772
395.000000	95.049294	-176.1695
400.000000	95.014618	-176.0571
406.000000	94.967743	-175.9108
412.000000	94.931931	-175.7259
418.000000	94.886330	-175.5767
425.000000	94.847519	-175.4029
431.000000	94.796211	-175.2139
437.000000	94.759422	-175.0026
444.000000	94.709091	-174.7712
450.000000	94.675400	-174.5877
455.000000	94.636803	-174.3469
462.000000	94.597443	-174.0892
468.000000	94.558098	-173.8688
475.000000	94.513145	-173.5798
482.000000	94.471260	-173.3097
487.000000	94.441513	-173.0962
494.000000	94.399521	-172.7821
500.000000	94.365295	-172.5668
508.000000	94.319481	-172.1853
515.000000	94.278915	-171.8677
522.000000	94.239807	-171.5151
530.000000	94.197136	-171.1424
538.000000	94.154022	-170.7910
545.000000	94.124138	-170.3981
552.000000	94.082352	-170.0656
560.000000	94.043640	-169.6605
570.000000	93.999580	-169.1210
580.000000	93.953888	-168.5733
590.000000	93.906601	-168.0367
600.000000	93.869781	-167.4858
608.000000	93.834160	-167.0089
615.000000	93.804161	-166.5684
622.000000	93.777542	-166.1819
630.000000	93.748581	-165.7088
640.000000	93.716148	-165.0982
650.000000	93.674294	-164.4955
660.000000	93.628113	-164.0326
670.000000	93.613342	-163.2206
680.000000	93.586525	-162.6070
690.000000	93.554451	-161.9273
700.000000	93.531860	-161.2501
710.000000	93.507942	-160.5920
720.000000	93.493690	-159.9607
730.000000	93.468788	-159.2132
740.000000	93.453751	-158.5104
750.000000	93.437233	-157.8050
762.000000	93.424805	-156.9124
775.000000	93.411377	-155.9268
788.000000	93.403381	-154.9898
800.000000	93.398209	-154.0852
812.000000	93.401428	-153.1635
825.000000	93.405899	-152.1653
838.000000	93.418785	-151.1300
850.000000	93.435226	-150.2081
862.000000	93.458923	-149.2615
875.000000	93.482269	-148.2138
885.000000	93.509331	-147.4483
900.000000	93.581940	-146.0964
912.000000	93.596481	-145.3046
925.000000	93.648300	-144.2862
938.000000	93.705902	-143.2745
950.000000	93.761909	-142.3651
962.000000	93.833221	-141.4624
975.000000	93.904701	-140.5329
988.000000	93.985001	-139.6105
1000.000000	94.060730	-138.7579
1015.000000	94.164825	-137.7433
1030.000000	94.276360	-136.7912
1044.000000	94.380768	-135.8955
1060.000000	94.512543	-134.9489
1075.000000	94.637131	-134.0793
1090.000000	94.769531	-133.2709
1106.000000	94.916046	-132.4918
1120.000000	95.048157	-131.8276
1138.000000	95.217796	-131.0962
1150.000000	95.333191	-130.6496
1172.000000	95.544807	-129.9779
1180.000000	95.619766	-129.7515
1206.000000	95.852402	-129.2029
1220.000000	95.973846	-128.9440
1241.000000	96.144974	-128.6444
1250.000000	96.215393	-128.5290
1265.000000	96.325500	-128.3554
1280.000000	96.426903	-128.2044
1315.000000	96.652077	-127.8867
1320.000000	96.678017	-127.8108
1340.000000	96.798103	-127.6887
1360.000000	96.904625	-127.5227
1380.000000	96.995071	-127.3812
1400.000000	97.099823	-127.1813
1430.000000	97.232239	-126.8900
1450.000000	97.315994	-126.6741
1475.000000	97.417450	-126.3864
1500.000000	97.518654	-126.0748
1525.000000	97.608673	-125.7389
1550.000000	97.700851	-125.3876
1575.000000	97.792969	-125.0083
1600.000000	97.884644	-124.6326
1625.000000	97.974701	-124.2012
1650.000000	98.066208	-123.7886
1675.000000	98.159790	-123.3642
1700.000000	98.254593	-122.8988
1725.000000	98.350746	-122.4422
1750.000000	98.448410	-121.9967
1775.000000	98.550400	-121.5181
1800.000000	98.653275	-121.0812
1825.000000	98.755676	-120.5896
1850.000000	98.860184	-120.1248
1875.000000	98.969795	-119.6496
1900.000000	99.081314	-119.1748
1925.000000	99.196503	-118.7350
1950.000000	99.311508	-118.2720
1975.000000	99.429993	-117.8369
2000.000000	99.553925	-117.4098
2030.000000	99.700218	-116.9070
2060.000000	99.852631	-116.4258
2090.000000	100.009315	-115.9579
2120.000000	100.169113	-115.5150
2140.000000	100.274612	-115.2557
2180.000000	100.492729	-114.7277
2200.000000	100.605225	-114.4813
2240.000000	100.831711	-114.0499
2270.000000	101.004623	-113.7441
2300.000000	101.179352	-113.5003
2330.000000	101.357109	-113.2805
2360.000000	101.534607	-113.1150
2400.000000	101.777153	-112.9400
2430.000000	101.957672	-112.8490
2470.000000	102.199265	-112.8042
2500.000000	102.381401	-112.8197
2540.000000	102.624062	-112.9166
2580.000000	102.864471	-113.0974
2620.000000	103.104248	-113.3604
2650.000000	103.281448	-113.6321
2690.000000	103.511131	-114.0419
2720.000000	103.681458	-114.4049
2760.000000	103.900085	-114.9832
2800.000000	104.110641	-115.6372
2850.000000	104.358032	-116.5558
2900.000000	104.588326	-117.5702
2950.000000	104.795883	-118.6832
3000.000000	104.984261	-119.8644
3040.000000	105.115173	-120.8416
3070.000000	105.204300	-121.5835
3110.000000	105.309929	-122.5764
3150.000000	105.400536	-123.5413
3200.000000	105.495049	-124.7311
3250.000000	105.573166	-125.8623
3300.000000	105.637756	-126.9573
3350.000000	105.688293	-127.9855
3400.000000	105.724503	-128.9463
3450.000000	105.752182	-129.8092
3500.000000	105.777878	-130.5665
3550.000000	105.811317	-131.2541
3600.000000	105.857147	-131.9503
3650.000000	105.904358	-132.7264
3700.000000	105.942581	-133.5902
3750.000000	105.963150	-134.4911
3820.000000	105.961075	-135.7082
3870.000000	105.943604	-136.5219
3950.000000	105.896240	-137.6669
4000.000000	105.859283	-138.2933
4060.000000	105.811302	-138.9444
4120.000000	105.759590	-139.5198
4180.000000	105.707367	-140.0241
4250.000000	105.648300	-140.5362
4310.000000	105.595856	-140.9188
4370.000000	105.545738	-141.2423
4440.000000	105.484695	-141.5886
4500.000000	105.432640	-141.8283
4550.000000	105.389145	-141.9758
4620.000000	105.324173	-142.1049
4680.000000	105.274437	-142.1321
4750.000000	105.223694	-142.0381
4820.000000	105.192017	-141.8685
4870.000000	105.184578	-141.7066
4940.000000	105.194748	-141.5091
5000.000000	105.217270	-141.3764
5080.000000	105.265015	-141.2893
5150.000000	105.320534	-141.3337
5220.000000	105.378929	-141.4665
5300.000000	105.452972	-141.7100
5380.000000	105.526085	-142.0807
5450.000000	105.593193	-142.4909
5520.000000	105.659210	-142.9748
5600.000000	105.734261	-143.6176
5700.000000	105.825020	-144.6084
5800.000000	105.907303	-145.7995
5900.000000	105.970825	-147.1946
6000.000000	106.007462	-148.7309
6080.000000	106.015228	-150.0215
6150.000000	106.008698	-151.1850
6220.000000	105.988113	-152.3537
6300.000000	105.947548	-153.6826
6400.000000	105.880280	-155.2912
6500.000000	105.794411	-156.8288
6600.000000	105.701462	-158.2894
6700.000000	105.604515	-159.6779
6800.000000	105.512260	-160.9875
6900.000000	105.427765	-162.2426
7000.000000	105.352692	-163.4782
7100.000000	105.294792	-164.6928
7200.000000	105.269241	-165.9541
7300.000000	105.266060	-167.4009
7400.000000	105.276443	-169.0730
7500.000000	105.290474	-170.9752
7620.000000	105.314720	-173.5027
7750.000000	105.344612	-176.6817
7880.000000	105.373718	179.5908
8000.000000	105.375473	175.5031
8120.000000	105.310997	170.7988
8250.000000	105.115837	165.0795
8380.000000	104.767357	159.0961
8500.000000	104.301849	153.5345
8620.000000	103.679871	148.2094
8750.000000	102.854042	143.0945
8850.000000	102.138016	139.8580
9000.000000	100.998856	136.2494
9120.000000	100.073677	134.4031
9250.000000	99.113937	133.3586
9380.000000	98.223114	133.1270
9500.000000	97.492645	133.3537
9620.000000	96.823036	133.6630
9750.000000	96.147194	134.0915
9880.000000	95.487831	134.6213
10000.000000	94.888916	135.5468
10150.000000	94.220978	136.8273
10300.000000	93.606766	138.3967
10440.000000	93.078423	139.9118
10600.000000	92.537354	141.9174
10750.000000	92.103271	143.7844
10900.000000	91.699219	145.7882
11060.000000	91.331558	147.8672
11200.000000	91.051422	149.7661
11380.000000	90.749237	152.0972
11500.000000	90.584999	153.6196
11720.000000	90.357147	156.4468
11800.000000	90.294014	157.3685
12060.000000	90.182755	160.3686
12200.000000	90.197144	161.7583
12410.000000	90.278191	163.6024
12500.000000	90.336388	164.2554
12650.000000	90.482452	165.2434
12800.000000	90.671272	165.9730
13150.000000	91.335869	166.6808
13200.000000	91.449112	166.6768
13400.000000	92.015984	166.0851
13600.000000	92.724564	164.6762
13800.000000	93.584297	162.0652
14000.000000	94.597321	158.1618
14300.000000	96.456993	149.1219
14500.000000	97.986008	139.5377
14750.000000	100.042107	120.9657
15000.000000	101.553078	92.8813
15250.000000	101.392929	59.4480
15500.000000	99.780212	30.7162
15750.000000	97.890099	8.5096
16000.000000	96.230743	-10.0235
16250.000000	94.896660	-27.2694
16500.000000	93.859192	-44.3876
16750.000000	93.038765	-62.1679
17000.000000	92.399811	-80.7123
17250.000000	91.853035	-100.8479
17500.000000	91.356400	-122.4027
17750.000000	90.844475	-145.9067
18000.000000	90.256050	-171.6927
18250.000000	89.499573	159.8224
18500.000000	88.435562	128.0731
18750.000000	86.846062	92.6254
19000.000000	84.540222	54.3190
19250.000000	81.374100	13.6597
19500.000000	77.242851	-28.2549
19750.000000	72.388008	-69.3307
