* Measurement data measured by REW V5.20.4
* Source: Trace Arithmetic result A * B
* Format: Trace Arithmetic result A * B
* Dated: 25-Feb-2022 18:10:46
* REW Settings:
*  C-weighting compensation: Off
*  Target level: 75.0 dB
* Note: Trace Arithmetic A times B A = M1070 Leather L VSG B = VSG to Crin
* Measurement: M1070 Leather R VSG to Crin
* Smoothing: 1/24 octave
* Frequency Step: 1/48 octave
* Start Frequency: 20.000 Hz
*
* Freq(Hz)	SPL(dB)
20.000000	71.592
20.299999	71.673
20.600000	71.747
20.900000	71.813
21.200001	71.869
21.400000	71.900
21.799999	71.948
22.000000	71.967
22.400000	72.001
22.700001	72.026
23.000000	72.051
23.299999	72.075
23.600000	72.096
24.000000	72.119
24.299999	72.136
24.700001	72.169
25.000000	72.208
25.400000	72.288
25.799999	72.394
26.200001	72.513
26.500000	72.601
26.900000	72.708
27.200001	72.778
27.600000	72.859
28.000000	72.927
28.500000	72.995
29.000000	73.044
29.500000	73.075
30.000000	73.098
30.400000	73.119
30.700001	73.135
31.100000	73.159
31.500000	73.183
32.000000	73.211
32.500000	73.239
33.000000	73.264
33.500000	73.283
34.000000	73.291
34.500000	73.288
35.000000	73.280
35.500000	73.273
36.000000	73.270
36.500000	73.268
37.000000	73.264
37.500000	73.258
38.200001	73.247
38.700001	73.240
39.500000	73.229
40.000000	73.217
40.599998	73.196
41.200001	73.172
41.799999	73.153
42.500000	73.138
43.099998	73.128
43.700001	73.117
44.400002	73.106
45.000000	73.102
45.500000	73.107
46.200001	73.128
46.799999	73.161
47.500000	73.214
48.200001	73.280
48.700001	73.331
49.400002	73.407
50.000000	73.472
50.799999	73.555
51.500000	73.622
52.200001	73.680
53.000000	73.736
53.799999	73.786
54.500000	73.830
55.200001	73.877
56.000000	73.933
57.000000	74.005
58.000000	74.073
59.000000	74.131
60.000000	74.175
60.799999	74.198
61.500000	74.207
62.200001	74.207
63.000000	74.196
64.000000	74.172
65.000000	74.142
66.000000	74.113
67.000000	74.091
68.000000	74.077
69.000000	74.070
70.000000	74.067
71.000000	74.066
72.000000	74.066
73.000000	74.068
74.000000	74.073
75.000000	74.085
76.199997	74.110
77.500000	74.153
78.800003	74.208
80.000000	74.265
81.199997	74.325
82.500000	74.389
83.800003	74.447
85.000000	74.492
86.199997	74.531
87.500000	74.566
88.500000	74.592
90.000000	74.631
91.199997	74.661
92.500000	74.691
93.800003	74.714
95.000000	74.729
96.199997	74.740
97.500000	74.749
98.800003	74.757
100.000000	74.764
101.500000	74.770
103.000000	74.773
104.400002	74.771
106.000000	74.766
107.500000	74.759
109.000000	74.749
110.599998	74.735
112.000000	74.720
113.800003	74.698
115.000000	74.683
117.199997	74.653
118.000000	74.640
120.599998	74.589
122.000000	74.556
124.099998	74.500
125.000000	74.474
126.500000	74.432
128.000000	74.391
131.500000	74.302
132.000000	74.290
134.000000	74.243
136.000000	74.198
138.000000	74.156
140.000000	74.115
143.000000	74.052
145.000000	74.009
147.500000	73.955
150.000000	73.905
152.500000	73.855
155.000000	73.805
157.500000	73.753
160.000000	73.698
162.500000	73.640
165.000000	73.583
167.500000	73.536
170.000000	73.503
172.500000	73.486
175.000000	73.484
177.500000	73.495
180.000000	73.514
182.500000	73.536
185.000000	73.558
187.500000	73.578
190.000000	73.593
192.500000	73.601
195.000000	73.596
197.500000	73.574
200.000000	73.534
203.000000	73.468
206.000000	73.390
209.000000	73.313
212.000000	73.243
214.000000	73.203
218.000000	73.133
220.000000	73.098
224.000000	73.011
227.000000	72.923
230.000000	72.812
233.000000	72.685
236.000000	72.554
240.000000	72.394
243.000000	72.295
247.000000	72.193
250.000000	72.136
254.000000	72.081
258.000000	72.044
262.000000	72.016
265.000000	71.998
269.000000	71.971
272.000000	71.946
276.000000	71.908
280.000000	71.867
285.000000	71.815
290.000000	71.764
295.000000	71.711
300.000000	71.654
304.000000	71.601
307.000000	71.554
311.000000	71.480
315.000000	71.390
320.000000	71.257
325.000000	71.110
330.000000	70.962
335.000000	70.830
340.000000	70.742
345.000000	70.727
350.000000	70.799
355.000000	70.942
360.000000	71.108
365.000000	71.239
370.000000	71.294
375.000000	71.264
382.000000	71.096
387.000000	70.909
395.000000	70.541
400.000000	70.296
406.000000	70.025
412.000000	69.813
418.000000	69.680
425.000000	69.634
431.000000	69.713
437.000000	69.922
444.000000	70.290
450.000000	70.599
455.000000	70.757
462.000000	70.735
468.000000	70.490
475.000000	70.039
482.000000	69.571
487.000000	69.298
494.000000	69.037
500.000000	68.916
508.000000	68.866
515.000000	68.900
522.000000	68.984
530.000000	69.112
538.000000	69.237
545.000000	69.324
552.000000	69.387
560.000000	69.437
570.000000	69.491
580.000000	69.559
590.000000	69.660
600.000000	69.795
608.000000	69.918
615.000000	70.032
622.000000	70.150
630.000000	70.297
640.000000	70.514
650.000000	70.765
660.000000	71.015
670.000000	71.229
680.000000	71.432
690.000000	71.701
700.000000	72.040
710.000000	72.304
720.000000	72.327
730.000000	72.084
740.000000	71.726
750.000000	71.473
762.000000	71.455
775.000000	71.687
788.000000	71.995
800.000000	72.259
812.000000	72.490
825.000000	72.721
838.000000	72.955
850.000000	73.177
862.000000	73.389
875.000000	73.564
885.000000	73.638
900.000000	73.654
912.000000	73.617
925.000000	73.562
938.000000	73.509
950.000000	73.474
962.000000	73.464
975.000000	73.488
988.000000	73.540
1000.000000	73.603
1015.000000	73.687
1030.000000	73.780
1044.000000	73.886
1060.000000	74.045
1075.000000	74.226
1090.000000	74.413
1106.000000	74.583
1120.000000	74.679
1138.000000	74.718
1150.000000	74.700
1172.000000	74.634
1180.000000	74.617
1206.000000	74.667
1220.000000	74.800
1241.000000	75.144
1250.000000	75.325
1265.000000	75.638
1280.000000	75.933
1315.000000	76.479
1320.000000	76.540
1340.000000	76.737
1360.000000	76.865
1380.000000	76.936
1400.000000	76.981
1430.000000	77.070
1450.000000	77.172
1475.000000	77.351
1500.000000	77.590
1525.000000	77.919
1550.000000	78.348
1575.000000	78.804
1600.000000	79.158
1625.000000	79.320
1650.000000	79.291
1675.000000	79.169
1700.000000	79.060
1725.000000	78.984
1750.000000	78.872
1775.000000	78.673
1800.000000	78.415
1825.000000	78.215
1850.000000	78.199
1875.000000	78.397
1900.000000	78.727
1925.000000	79.086
1950.000000	79.420
1975.000000	79.724
2000.000000	80.009
2030.000000	80.329
2060.000000	80.605
2090.000000	80.801
2120.000000	80.890
2140.000000	80.892
2180.000000	80.795
2200.000000	80.711
2240.000000	80.490
2270.000000	80.296
2300.000000	80.108
2330.000000	79.953
2360.000000	79.836
2400.000000	79.701
2430.000000	79.596
2470.000000	79.469
2500.000000	79.404
2540.000000	79.363
2580.000000	79.336
2620.000000	79.269
2650.000000	79.174
2690.000000	79.003
2720.000000	78.864
2760.000000	78.696
2800.000000	78.584
2850.000000	78.660
2900.000000	79.182
2950.000000	80.155
3000.000000	81.302
3040.000000	82.135
3070.000000	82.640
3110.000000	83.118
3150.000000	83.360
3200.000000	83.352
3250.000000	83.045
3300.000000	82.509
3350.000000	81.824
3400.000000	81.062
3450.000000	80.288
3500.000000	79.562
3550.000000	78.932
3600.000000	78.441
3650.000000	78.113
3700.000000	77.947
3750.000000	77.899
3820.000000	77.907
3870.000000	77.901
3950.000000	77.838
4000.000000	77.777
4060.000000	77.692
4120.000000	77.610
4180.000000	77.551
4250.000000	77.536
4310.000000	77.576
4370.000000	77.660
4440.000000	77.802
4500.000000	77.951
4550.000000	78.085
4620.000000	78.259
4680.000000	78.345
4750.000000	78.295
4820.000000	78.013
4870.000000	77.649
4940.000000	76.909
5000.000000	76.081
5080.000000	74.790
5150.000000	73.649
5220.000000	72.736
5300.000000	72.241
5380.000000	72.403
5450.000000	72.924
5520.000000	73.588
5600.000000	74.327
5700.000000	75.154
5800.000000	76.096
5900.000000	77.393
6000.000000	78.911
6080.000000	80.050
6150.000000	80.870
6220.000000	81.472
6300.000000	81.865
6400.000000	81.915
6500.000000	81.528
6600.000000	80.798
6700.000000	79.820
6800.000000	78.668
6900.000000	77.406
7000.000000	76.097
7100.000000	74.810
7200.000000	73.639
7300.000000	72.715
7400.000000	72.193
7500.000000	72.163
7620.000000	72.690
7750.000000	73.608
7880.000000	74.520
8000.000000	75.181
8120.000000	75.588
8250.000000	75.667
8380.000000	75.306
8500.000000	74.573
8620.000000	73.511
8750.000000	72.101
8850.000000	70.913
9000.000000	69.120
9120.000000	67.829
9250.000000	66.711
9380.000000	65.885
9500.000000	65.289
9620.000000	64.757
9750.000000	64.155
9880.000000	63.415
10000.000000	62.545
10150.000000	61.316
10300.000000	60.443
10440.000000	60.528
10600.000000	61.611
10750.000000	63.005
10900.000000	64.418
11060.000000	65.808
11200.000000	66.857
11380.000000	67.906
11500.000000	68.416
11720.000000	69.098
11800.000000	69.336
12060.000000	70.403
12200.000000	71.182
12410.000000	72.345
12500.000000	72.740
12650.000000	73.153
12800.000000	73.207
13150.000000	72.071
13200.000000	71.813
13400.000000	70.721
13600.000000	69.718
13800.000000	68.915
14000.000000	68.217
14300.000000	66.878
14500.000000	65.581
14750.000000	63.745
15000.000000	62.534
15250.000000	62.530
15500.000000	63.405
15750.000000	64.723
16000.000000	65.936
16250.000000	66.540
16500.000000	66.528
16750.000000	66.542
17000.000000	67.221
17250.000000	68.197
17500.000000	68.781
17750.000000	68.688
18000.000000	67.947
18250.000000	66.733
18500.000000	65.269
18750.000000	63.735
19000.000000	62.249
19250.000000	60.916
19500.000000	59.808
19750.000000	58.971
