* Measurement data measured by REW V5.19
* Source: ASIO MOTU M Series, In 1
* Format: 1M Log Swept Sine, 1 sweep at -3.0 dBFS  With no timing reference
* Dated: 2 Dec, 2020 4:45:09 PM
* REW Settings:
*  C-weighting compensation: Off
*  Target level: 75.0 dB
* Note: ; 
* Measurement: Dec 2 16:45:09
* Smoothing: 1/48 octave
* Frequency Step: 1/48 octave
* Start Frequency: 10.1 Hz
*
* Freq(Hz), SPL(dB), Phase(degrees)
10.145, 59.727, -125.452
10.293, 59.654, -125.087
10.443, 59.585, -124.604
10.595, 59.558, -123.912
10.749, 59.596, -123.318
10.905, 59.772, -123.168
11.064, 60.027, -123.409
11.225, 60.264, -124.213
11.388, 60.496, -125.524
11.554, 60.687, -127.222
11.722, 60.837, -129.279
11.892, 60.921, -131.387
12.065, 60.940, -133.522
12.241, 60.898, -135.356
12.419, 60.806, -136.868
12.599, 60.703, -137.824
12.782, 60.608, -138.291
12.968, 60.561, -138.237
13.157, 60.580, -137.930
13.348, 60.691, -137.503
13.543, 60.865, -137.309
13.740, 61.095, -137.442
13.939, 61.324, -138.033
14.142, 61.537, -139.000
14.348, 61.698, -140.257
14.557, 61.801, -141.570
14.768, 61.841, -142.836
14.983, 61.836, -143.836
15.201, 61.804, -144.547
15.422, 61.762, -144.921
15.646, 61.738, -145.071
15.874, 61.732, -145.102
16.105, 61.747, -145.127
16.339, 61.766, -145.252
16.577, 61.775, -145.451
16.818, 61.765, -145.693
17.063, 61.733, -145.878
17.311, 61.691, -145.943
17.563, 61.649, -145.887
17.818, 61.622, -145.745
18.077, 61.617, -145.626
18.340, 61.626, -145.620
18.607, 61.642, -145.762
18.877, 61.653, -146.050
19.152, 61.654, -146.432
19.431, 61.649, -146.850
19.713, 61.645, -147.292
20.000, 61.646, -147.784
20.291, 61.653, -148.359
20.586, 61.659, -149.038
20.885, 61.657, -149.794
21.189, 61.642, -150.552
21.497, 61.620, -151.234
21.810, 61.603, -151.806
22.127, 61.601, -152.304
22.449, 61.617, -152.803
22.776, 61.641, -153.362
23.107, 61.658, -153.981
23.443, 61.659, -154.586
23.784, 61.642, -155.071
24.130, 61.619, -155.358
24.481, 61.609, -155.449
24.837, 61.624, -155.436
25.198, 61.667, -155.464
25.565, 61.724, -155.655
25.937, 61.772, -156.047
26.314, 61.790, -156.565
26.697, 61.771, -157.045
27.085, 61.731, -157.324
27.479, 61.703, -157.367
27.879, 61.716, -157.334
28.284, 61.769, -157.495
28.696, 61.827, -158.016
29.113, 61.844, -158.807
29.537, 61.802, -159.542
29.966, 61.730, -159.902
30.402, 61.684, -159.850
30.844, 61.702, -159.667
31.293, 61.765, -159.710
31.748, 61.822, -160.058
32.210, 61.837, -160.477
32.678, 61.828, -160.697
33.154, 61.833, -160.728
33.636, 61.861, -160.843
34.125, 61.871, -161.196
34.621, 61.826, -161.549
35.125, 61.754, -161.516
35.636, 61.734, -161.152
36.154, 61.797, -161.072
36.680, 61.861, -161.716
37.214, 61.820, -162.734
37.755, 61.688, -163.271
38.304, 61.585, -163.000
38.861, 61.611, -162.530
39.427, 61.721, -162.541
40.000, 61.824, -163.060
40.582, 61.888, -163.702
41.172, 61.927, -164.254
41.771, 61.953, -164.637
42.379, 61.984, -164.846
42.995, 62.024, -165.084
43.620, 62.022, -165.430
44.255, 61.951, -165.456
44.898, 61.886, -164.841
45.552, 61.902, -164.087
46.214, 61.945, -163.764
46.886, 61.946, -163.639
47.568, 61.945, -163.466
48.260, 61.958, -163.611
48.962, 61.913, -164.093
49.674, 61.811, -164.307
50.397, 61.747, -164.209
51.130, 61.729, -164.286
51.874, 61.703, -164.429
52.628, 61.711, -164.356
53.394, 61.792, -164.493
54.170, 61.859, -165.163
54.958, 61.838, -165.778
55.758, 61.805, -165.735
56.569, 61.857, -165.545
57.391, 61.905, -165.863
58.226, 61.866, -166.031
59.073, 61.853, -165.691
59.932, 61.888, -165.628
60.804, 61.877, -165.739
61.688, 61.866, -165.603
62.586, 61.894, -165.556
63.496, 61.918, -165.761
64.420, 61.912, -165.886
65.357, 61.945, -165.784
66.307, 62.010, -166.069
67.272, 62.012, -166.404
68.250, 62.031, -166.455
69.243, 62.049, -166.707
70.250, 62.037, -166.734
71.272, 62.067, -166.671
72.309, 62.098, -166.894
73.360, 62.089, -167.127
74.427, 62.080, -167.217
75.510, 62.070, -167.363
76.608, 62.044, -167.374
77.723, 62.051, -167.227
78.853, 62.084, -167.265
80.000, 62.100, -167.407
81.164, 62.106, -167.508
82.344, 62.105, -167.554
83.542, 62.105, -167.556
84.757, 62.108, -167.514
85.990, 62.112, -167.513
87.241, 62.116, -167.405
88.510, 62.138, -167.372
89.797, 62.154, -167.303
91.103, 62.184, -167.331
92.428, 62.193, -167.407
93.773, 62.205, -167.395
95.137, 62.235, -167.500
96.520, 62.244, -167.718
97.924, 62.248, -167.827
99.349, 62.261, -167.950
100.794, 62.268, -168.085
102.260, 62.270, -168.162
103.747, 62.280, -168.248
105.256, 62.278, -168.383
106.787, 62.265, -168.451
108.340, 62.259, -168.479
109.916, 62.249, -168.470
111.515, 62.255, -168.437
113.137, 62.257, -168.452
114.783, 62.265, -168.405
116.452, 62.283, -168.401
118.146, 62.302, -168.422
119.865, 62.325, -168.478
121.608, 62.339, -168.565
123.377, 62.353, -168.656
125.171, 62.354, -168.794
126.992, 62.351, -168.885
128.839, 62.338, -168.953
130.713, 62.335, -168.927
132.615, 62.332, -168.969
134.543, 62.340, -168.971
136.500, 62.344, -169.078
138.486, 62.335, -169.079
140.500, 62.331, -168.999
142.544, 62.329, -168.973
144.617, 62.328, -168.983
146.721, 62.329, -169.008
148.855, 62.331, -169.004
151.020, 62.332, -168.985
153.217, 62.327, -168.953
155.445, 62.323, -168.925
157.706, 62.324, -168.870
160.000, 62.324, -168.817
162.327, 62.329, -168.752
164.688, 62.334, -168.708
167.084, 62.341, -168.626
169.514, 62.345, -168.563
171.980, 62.342, -168.543
174.481, 62.347, -168.531
177.019, 62.353, -168.516
179.594, 62.356, -168.438
182.206, 62.353, -168.361
184.856, 62.355, -168.314
187.545, 62.354, -168.307
190.273, 62.347, -168.204
193.041, 62.346, -168.126
195.849, 62.351, -168.024
198.697, 62.369, -167.968
201.587, 62.386, -167.874
204.520, 62.399, -167.732
207.494, 62.412, -167.625
210.512, 62.423, -167.555
213.574, 62.437, -167.453
216.681, 62.443, -167.396
219.833, 62.437, -167.358
223.030, 62.457, -167.257
226.274, 62.478, -167.146
229.565, 62.496, -167.076
232.905, 62.512, -166.982
236.292, 62.520, -166.964
239.729, 62.515, -167.005
243.216, 62.519, -167.089
246.754, 62.525, -167.079
250.343, 62.527, -167.196
253.984, 62.527, -167.307
257.678, 62.501, -167.366
261.426, 62.457, -167.301
265.229, 62.418, -167.081
269.087, 62.387, -166.797
273.001, 62.388, -166.530
276.972, 62.392, -166.185
281.000, 62.391, -165.874
285.088, 62.391, -165.667
289.234, 62.396, -165.442
293.441, 62.417, -165.171
297.710, 62.421, -164.945
302.040, 62.425, -164.733
306.433, 62.437, -164.496
310.890, 62.448, -164.325
315.412, 62.461, -164.143
320.000, 62.477, -163.866
324.655, 62.491, -163.647
329.377, 62.516, -163.445
334.168, 62.525, -163.191
339.028, 62.561, -162.962
343.959, 62.582, -162.774
348.962, 62.607, -162.597
354.038, 62.640, -162.349
359.188, 62.671, -162.172
364.412, 62.705, -162.074
369.713, 62.715, -161.986
375.090, 62.716, -161.846
380.546, 62.691, -161.591
386.081, 62.700, -161.174
391.697, 62.728, -160.883
397.395, 62.755, -160.664
403.175, 62.778, -160.473
409.039, 62.802, -160.240
414.989, 62.821, -159.972
421.025, 62.849, -159.731
427.149, 62.868, -159.471
433.362, 62.883, -159.138
439.665, 62.926, -158.868
446.060, 62.965, -158.598
452.548, 63.003, -158.336
459.131, 63.046, -158.142
465.809, 63.089, -157.954
472.584, 63.129, -157.821
479.458, 63.154, -157.782
486.432, 63.157, -157.697
493.507, 63.157, -157.475
500.686, 63.166, -157.143
507.968, 63.172, -156.703
515.357, 63.206, -156.224
522.853, 63.255, -155.788
530.458, 63.304, -155.399
538.174, 63.358, -155.026
546.002, 63.424, -154.755
553.943, 63.480, -154.511
562.001, 63.523, -154.300
570.175, 63.567, -154.052
578.469, 63.625, -153.752
586.883, 63.681, -153.562
595.419, 63.720, -153.389
604.080, 63.751, -153.219
612.866, 63.784, -152.820
621.780, 63.845, -152.392
630.824, 63.916, -152.098
640.000, 63.987, -151.784
649.309, 64.073, -151.571
658.753, 64.141, -151.459
668.335, 64.211, -151.360
678.056, 64.254, -151.469
687.919, 64.233, -151.198
697.925, 64.284, -150.362
708.076, 64.400, -149.975
718.376, 64.495, -149.943
728.825, 64.548, -149.824
739.426, 64.606, -149.618
750.181, 64.669, -149.325
761.093, 64.756, -149.069
772.163, 64.816, -148.920
783.394, 64.877, -148.568
794.789, 64.972, -148.263
806.349, 65.067, -148.195
818.078, 65.126, -148.116
829.977, 65.189, -147.831
842.050, 65.251, -147.665
854.297, 65.318, -147.273
866.724, 65.430, -146.923
879.330, 65.534, -146.765
892.120, 65.636, -146.705
905.097, 65.709, -146.647
918.262, 65.776, -146.435
931.618, 65.868, -146.042
945.169, 66.016, -145.765
958.917, 66.166, -145.892
972.864, 66.247, -146.239
987.015, 66.298, -146.264
1001.371, 66.354, -146.223
1015.937, 66.430, -145.819
1030.714, 66.545, -145.814
1045.706, 66.589, -145.626
1060.916, 66.720, -145.050
1076.347, 66.914, -144.696
1092.003, 67.125, -145.213
1107.887, 67.213, -146.282
1124.001, 67.127, -146.730
1140.350, 67.119, -146.172
1156.937, 67.151, -145.634
1173.765, 67.145, -144.791
1190.838, 67.278, -142.851
1208.159, 67.638, -141.726
1225.732, 67.965, -142.018
1243.561, 68.123, -142.044
1261.649, 68.430, -141.404
1280.000, 68.799, -142.017
1298.618, 69.062, -143.620
1317.507, 69.093, -144.896
1336.670, 69.134, -144.401
1356.113, 69.472, -143.814
1375.838, 69.793, -144.907
1395.850, 69.997, -145.609
1416.153, 70.341, -146.726
1436.751, 70.476, -148.323
1457.649, 70.667, -148.849
1478.851, 71.063, -149.764
1500.362, 71.523, -152.658
1522.185, 71.612, -157.471
1544.326, 71.300, -160.809
1566.789, 70.999, -161.091
1589.578, 70.987, -160.668
1612.699, 71.270, -161.700
1636.156, 71.160, -163.572
1659.955, 71.298, -164.224
1684.099, 71.297, -165.931
1708.595, 71.397, -167.090
1733.447, 71.478, -169.183
1758.661, 71.521, -170.445
1784.241, 71.738, -173.702
1810.193, 71.515, -179.277
1836.523, 70.838, 179.605
1863.236, 70.650, 177.975
1890.338, 69.910, 176.574
1917.833, 69.576, 179.746
1945.729, 69.740, 179.557
1974.030, 69.357, 178.104
2002.743, 69.213, 179.005
2031.873, 69.060, 177.982
2061.428, 68.547, 177.249
2091.412, 68.078, 178.736
2121.832, 67.727, -178.910
2152.695, 67.509, -176.693
2184.007, 67.200, -173.147
2215.774, 67.330, -169.087
2248.003, 67.531, -166.296
2280.701, 67.844, -163.563
2313.874, 68.242, -162.892
2347.530, 68.363, -161.307
2381.676, 68.763, -159.750
2416.318, 69.049, -158.978
2451.464, 69.502, -157.899
2487.122, 69.932, -157.232
2523.298, 70.629, -157.809
2560.000, 71.011, -160.670
2597.236, 71.248, -163.358
2635.014, 71.317, -166.428
2673.341, 70.957, -168.202
2712.226, 70.696, -167.189
2751.676, 70.668, -163.892
2791.700, 71.082, -161.574
2832.306, 71.757, -158.958
2873.503, 72.658, -159.610
2915.299, 73.505, -162.140
2957.703, 74.112, -167.951
3000.724, 74.144, -172.379
3044.370, 74.402, -175.380
3088.652, 74.641, 179.797
3133.577, 74.506, 174.727
3179.156, 74.165, 172.235
3225.398, 74.207, 171.330
3272.312, 74.469, 167.835
3319.909, 74.493, 163.082
3368.198, 74.137, 158.252
3417.190, 73.679, 155.335
3466.894, 73.300, 154.024
3517.321, 73.195, 152.179
3568.482, 72.825, 149.273
3620.387, 72.506, 147.816
3673.046, 72.219, 146.299
3726.472, 72.001, 144.747
3780.675, 71.649, 142.256
3835.666, 71.282, 141.211
3891.457, 70.988, 139.782
3948.060, 70.628, 136.943
4005.486, 69.902, 135.978
4063.747, 69.597, 135.104
4122.855, 68.813, 132.582
4182.824, 67.833, 133.742
4243.664, 67.057, 136.809
4305.390, 66.512, 141.344
4368.013, 66.338, 146.169
4431.547, 66.591, 148.579
4496.005, 66.350, 148.314
4561.401, 65.787, 151.090
4627.749, 65.514, 155.610
4695.061, 65.249, 161.853
4763.352, 65.706, 171.189
4832.637, 67.139, 176.531
4902.929, 68.343, 175.803
4974.244, 69.255, 172.937
5046.596, 69.760, 168.499
5120.000, 69.797, 165.834
5194.472, 70.175, 166.387
5270.027, 70.933, 164.390
5346.682, 71.497, 159.768
5424.451, 71.845, 154.553
5503.352, 72.025, 149.342
5583.399, 72.106, 144.083
5664.612, 72.190, 138.873
5747.006, 72.275, 132.222
5830.598, 72.055, 123.438
5915.406, 71.326, 114.725
6001.447, 70.092, 107.439
6088.740, 68.432, 104.885
6177.303, 67.090, 106.458
6267.154, 66.138, 109.268
6358.312, 65.502, 111.728
6450.796, 64.978, 113.442
6544.625, 64.389, 115.605
6639.818, 64.073, 118.244
6736.397, 63.770, 120.381
6834.380, 63.741, 122.335
6933.789, 63.676, 122.032
7034.643, 63.407, 121.467
7136.964, 62.890, 122.152
7240.773, 62.732, 126.038
7346.093, 63.219, 127.842
7452.944, 64.041, 123.788
7561.350, 63.714, 112.988
7671.332, 62.188, 108.582
7782.915, 60.965, 108.992
7896.120, 59.798, 110.786
8010.971, 58.681, 115.035
8127.493, 57.826, 123.407
8245.711, 58.391, 135.190
8365.647, 60.459, 137.077
8487.328, 61.294, 125.037
8610.779, 60.894, 115.736
8736.026, 60.891, 103.758
8863.095, 59.701, 82.330
8992.011, 56.481, 61.254
9122.803, 51.496, 42.651
9255.497, 46.478, 18.433
9390.121, 48.307, -35.395
9526.704, 52.432, -80.238
9665.273, 55.408, -99.647
9805.857, 58.391, -107.210
9948.487, 61.525, -117.579
10093.191, 63.269, -134.451
10240.000, 64.044, -146.204
10388.944, 65.116, -156.953
10540.055, 65.549, -170.459
10693.363, 65.374, 178.899
10848.902, 65.414, 170.897
11006.703, 65.404, 158.265
11166.799, 64.146, 146.976
11329.224, 62.629, 143.653
11494.012, 61.864, 142.872
11661.195, 61.180, 142.352
11830.812, 61.605, 143.379
12002.895, 62.403, 131.779
12177.480, 61.306, 116.856
12354.606, 59.884, 108.476
12534.309, 58.638, 95.859
12716.624, 56.357, 84.781
12901.592, 54.389, 71.771
13089.250, 51.172, 53.343
13279.637, 47.233, 39.570
13472.794, 45.246, 16.448
13668.760, 44.602, -6.574
13867.577, 49.002, -19.534
14069.285, 51.916, -46.192
14273.928, 54.309, -59.820
14481.547, 56.818, -77.566
14692.186, 57.129, -93.542
14905.889, 57.940, -102.231
15122.700, 58.065, -113.033
15342.664, 58.033, -119.739
15565.829, 57.471, -127.166
15792.239, 56.535, -125.477
16021.942, 56.724, -123.194
16254.986, 57.026, -122.153
16491.422, 57.392, -124.767
16731.295, 56.817, -125.063
16974.656, 57.081, -117.223
17221.559, 58.707, -113.091
17472.053, 60.671, -119.595
17726.189, 60.953, -132.816
17984.021, 60.615, -144.169
18245.605, 59.063, -151.121
18510.994, 57.459, -151.015
18780.242, 56.231, -141.131
19053.408, 57.289, -131.954
19330.547, 58.765, -132.560
19611.715, 59.855, -141.860
19896.975, 59.770, -151.883
