* Measurement data measured by REW V5.20.4
* Source: /Users/szymonkulak/Documents/Cracked Target.txt
* Format: Comma/Tab/Space delimited data
* Dated: Dec 13, 2021 4:00:18 AM
* REW Settings:
*  C-weighting compensation: Off
*  Target level: 75.0 dB
* Note: Measurement imported from /Users/szymonkulak/Documents/Cracked Target.txt Format: Comma/Tab/Space delimited data 28 values loaded, 20 Hz to 20,040 Hz log spaced
* Measurement: Cracked Target
* Smoothing: 1/12 octave
* Frequency Step: 1/48 octave
* Start Frequency: 20.000 Hz
*
* Freq(Hz)	SPL(dB)
20.000000	69.510
20.299999	69.518
20.600000	69.530
20.900000	69.544
21.200001	69.557
21.400000	69.566
21.799999	69.584
22.000000	69.593
22.400000	69.609
22.700001	69.622
23.000000	69.634
23.299999	69.645
23.600000	69.656
24.000000	69.670
24.299999	69.681
24.700001	69.694
25.000000	69.703
25.400000	69.715
25.799999	69.726
26.200001	69.736
26.500000	69.744
26.900000	69.753
27.200001	69.759
27.600000	69.767
28.000000	69.774
28.500000	69.782
29.000000	69.788
29.500000	69.793
30.000000	69.794
30.400000	69.792
30.700001	69.789
31.100000	69.783
31.500000	69.775
32.000000	69.765
32.500000	69.753
33.000000	69.740
33.500000	69.726
34.000000	69.711
34.500000	69.696
35.000000	69.680
35.500000	69.663
36.000000	69.646
36.500000	69.628
37.000000	69.610
37.500000	69.592
38.200001	69.566
38.700001	69.548
39.500000	69.519
40.000000	69.502
40.599998	69.481
41.200001	69.462
41.799999	69.443
42.500000	69.421
43.099998	69.402
43.700001	69.383
44.400002	69.362
45.000000	69.343
45.500000	69.328
46.200001	69.307
46.799999	69.290
47.500000	69.269
48.200001	69.250
48.700001	69.236
49.400002	69.219
50.000000	69.205
50.799999	69.191
51.500000	69.180
52.200001	69.169
53.000000	69.158
53.799999	69.145
54.500000	69.133
55.200001	69.121
56.000000	69.105
57.000000	69.082
58.000000	69.057
59.000000	69.027
60.000000	68.992
60.799999	68.959
61.500000	68.927
62.200001	68.895
63.000000	68.856
64.000000	68.807
65.000000	68.758
66.000000	68.708
67.000000	68.657
68.000000	68.607
69.000000	68.556
70.000000	68.505
71.000000	68.454
72.000000	68.403
73.000000	68.352
74.000000	68.301
75.000000	68.251
76.199997	68.190
77.500000	68.125
78.800003	68.061
80.000000	68.003
81.199997	67.947
82.500000	67.887
83.800003	67.828
85.000000	67.774
86.199997	67.720
87.500000	67.662
88.500000	67.617
90.000000	67.550
91.199997	67.496
92.500000	67.438
93.800003	67.379
95.000000	67.325
96.199997	67.271
97.500000	67.212
98.800003	67.153
100.000000	67.098
101.500000	67.027
103.000000	66.956
104.400002	66.890
106.000000	66.815
107.500000	66.745
109.000000	66.676
110.599998	66.604
112.000000	66.541
113.800003	66.462
115.000000	66.409
117.199997	66.314
118.000000	66.280
120.599998	66.171
122.000000	66.114
124.099998	66.028
125.000000	65.992
126.500000	65.933
128.000000	65.874
131.500000	65.741
132.000000	65.722
134.000000	65.648
136.000000	65.575
138.000000	65.503
140.000000	65.433
143.000000	65.330
145.000000	65.264
147.500000	65.184
150.000000	65.109
152.500000	65.042
155.000000	64.980
157.500000	64.920
160.000000	64.863
162.500000	64.807
165.000000	64.752
167.500000	64.698
170.000000	64.644
172.500000	64.591
175.000000	64.538
177.500000	64.485
180.000000	64.433
182.500000	64.380
185.000000	64.327
187.500000	64.273
190.000000	64.220
192.500000	64.165
195.000000	64.109
197.500000	64.051
200.000000	63.989
203.000000	63.908
206.000000	63.824
209.000000	63.737
212.000000	63.651
214.000000	63.593
218.000000	63.479
220.000000	63.422
224.000000	63.310
227.000000	63.226
230.000000	63.143
233.000000	63.062
236.000000	62.981
240.000000	62.874
243.000000	62.796
247.000000	62.692
250.000000	62.616
254.000000	62.516
258.000000	62.417
262.000000	62.321
265.000000	62.250
269.000000	62.157
272.000000	62.088
276.000000	61.999
280.000000	61.911
285.000000	61.805
290.000000	61.701
295.000000	61.603
300.000000	61.512
304.000000	61.446
307.000000	61.400
311.000000	61.341
315.000000	61.286
320.000000	61.221
325.000000	61.159
330.000000	61.100
335.000000	61.045
340.000000	60.991
345.000000	60.940
350.000000	60.892
355.000000	60.845
360.000000	60.801
365.000000	60.758
370.000000	60.717
375.000000	60.678
382.000000	60.625
387.000000	60.589
395.000000	60.533
400.000000	60.498
406.000000	60.456
412.000000	60.414
418.000000	60.374
425.000000	60.330
431.000000	60.293
437.000000	60.259
444.000000	60.221
450.000000	60.191
455.000000	60.167
462.000000	60.135
468.000000	60.110
475.000000	60.082
482.000000	60.057
487.000000	60.041
494.000000	60.021
500.000000	60.007
508.000000	59.993
515.000000	59.984
522.000000	59.979
530.000000	59.975
538.000000	59.973
545.000000	59.973
552.000000	59.974
560.000000	59.977
570.000000	59.981
580.000000	59.986
590.000000	59.991
600.000000	59.991
608.000000	59.988
615.000000	59.983
622.000000	59.977
630.000000	59.969
640.000000	59.961
650.000000	59.953
660.000000	59.946
670.000000	59.940
680.000000	59.935
690.000000	59.932
700.000000	59.930
710.000000	59.930
720.000000	59.931
730.000000	59.934
740.000000	59.938
750.000000	59.945
762.000000	59.955
775.000000	59.969
788.000000	59.989
800.000000	60.016
812.000000	60.052
825.000000	60.100
838.000000	60.153
850.000000	60.207
862.000000	60.263
875.000000	60.327
885.000000	60.377
900.000000	60.455
912.000000	60.518
925.000000	60.588
938.000000	60.659
950.000000	60.726
962.000000	60.792
975.000000	60.864
988.000000	60.935
1000.000000	61.000
1015.000000	61.079
1030.000000	61.157
1044.000000	61.229
1060.000000	61.309
1075.000000	61.383
1090.000000	61.456
1106.000000	61.533
1120.000000	61.599
1138.000000	61.682
1150.000000	61.737
1172.000000	61.835
1180.000000	61.870
1206.000000	61.981
1220.000000	62.040
1241.000000	62.126
1250.000000	62.162
1265.000000	62.221
1280.000000	62.279
1315.000000	62.410
1320.000000	62.429
1340.000000	62.500
1360.000000	62.569
1380.000000	62.637
1400.000000	62.702
1430.000000	62.796
1450.000000	62.856
1475.000000	62.926
1500.000000	62.989
1525.000000	63.041
1550.000000	63.086
1575.000000	63.125
1600.000000	63.161
1625.000000	63.194
1650.000000	63.224
1675.000000	63.252
1700.000000	63.278
1725.000000	63.302
1750.000000	63.324
1775.000000	63.345
1800.000000	63.365
1825.000000	63.384
1850.000000	63.402
1875.000000	63.419
1900.000000	63.436
1925.000000	63.454
1950.000000	63.473
1975.000000	63.496
2000.000000	63.526
2030.000000	63.575
2060.000000	63.631
2090.000000	63.690
2120.000000	63.747
2140.000000	63.783
2180.000000	63.850
2200.000000	63.881
2240.000000	63.934
2270.000000	63.967
2300.000000	63.994
2330.000000	64.014
2360.000000	64.027
2400.000000	64.029
2430.000000	64.015
2470.000000	63.961
2500.000000	63.875
2540.000000	63.683
2580.000000	63.414
2620.000000	63.100
2650.000000	62.854
2690.000000	62.532
2720.000000	62.312
2760.000000	62.074
2800.000000	61.914
2850.000000	61.816
2900.000000	61.817
2950.000000	61.909
3000.000000	62.086
3040.000000	62.276
3070.000000	62.436
3110.000000	62.661
3150.000000	62.890
3200.000000	63.178
3250.000000	63.464
3300.000000	63.747
3350.000000	64.025
3400.000000	64.300
3450.000000	64.568
3500.000000	64.830
3550.000000	65.085
3600.000000	65.333
3650.000000	65.573
3700.000000	65.804
3750.000000	66.026
3820.000000	66.321
3870.000000	66.517
3950.000000	66.792
4000.000000	66.927
4060.000000	67.044
4120.000000	67.121
4180.000000	67.173
4250.000000	67.211
4310.000000	67.230
4370.000000	67.237
4440.000000	67.235
4500.000000	67.224
4550.000000	67.210
4620.000000	67.186
4680.000000	67.160
4750.000000	67.128
4820.000000	67.095
4870.000000	67.073
4940.000000	67.051
5000.000000	67.045
5080.000000	67.061
5150.000000	67.092
5220.000000	67.129
5300.000000	67.175
5380.000000	67.222
5450.000000	67.262
5520.000000	67.300
5600.000000	67.342
5700.000000	67.390
5800.000000	67.431
5900.000000	67.464
6000.000000	67.486
6080.000000	67.494
6150.000000	67.493
6220.000000	67.486
6300.000000	67.470
6400.000000	67.439
6500.000000	67.395
6600.000000	67.339
6700.000000	67.269
6800.000000	67.186
6900.000000	67.085
7000.000000	66.961
7100.000000	66.813
7200.000000	66.642
7300.000000	66.457
7400.000000	66.261
7500.000000	66.058
7620.000000	65.810
7750.000000	65.538
7880.000000	65.269
8000.000000	65.030
8120.000000	64.803
8250.000000	64.569
8380.000000	64.343
8500.000000	64.141
8620.000000	63.943
8750.000000	63.734
8850.000000	63.578
9000.000000	63.349
9120.000000	63.171
9250.000000	62.984
9380.000000	62.802
9500.000000	62.640
9620.000000	62.482
9750.000000	62.317
9880.000000	62.158
10000.000000	62.019
10150.000000	61.853
10300.000000	61.695
10440.000000	61.552
10600.000000	61.393
10750.000000	61.248
10900.000000	61.106
11060.000000	60.957
11200.000000	60.829
11380.000000	60.669
11500.000000	60.564
11720.000000	60.375
11800.000000	60.308
12060.000000	60.093
12200.000000	59.980
12410.000000	59.813
12500.000000	59.743
12650.000000	59.628
12800.000000	59.514
13150.000000	59.254
13200.000000	59.218
13400.000000	59.074
13600.000000	58.933
13800.000000	58.794
14000.000000	58.658
14300.000000	58.456
14500.000000	58.324
14750.000000	58.157
15000.000000	57.981
15250.000000	57.791
15500.000000	57.591
15750.000000	57.386
16000.000000	57.179
16250.000000	56.973
16500.000000	56.766
16750.000000	56.561
17000.000000	56.356
17250.000000	56.152
17500.000000	55.949
17750.000000	55.747
18000.000000	55.547
18250.000000	55.349
18500.000000	55.152
18750.000000	54.957
19000.000000	54.766
19250.000000	54.580
19500.000000	54.409
19750.000000	54.267
20000.000000	54.186
